#                                                           
#  **    **    **     ****     ****  ******     *******     
# //**  **    ****   /**/**   **/** /*////**   **/////**    
#  //****    **//**  /**//** ** /** /*   /**  **     //**   
#   //**    **  //** /** //***  /** /******  /**      /**   
#    /**   **********/**  //*   /** /*//// **/**      /**   
#    /**  /**//////**/**   /    /** /*    /**//**     **    
#    /**  /**     /**/**        /** /*******  //*******     
#    //   //      // //         //  ///////    ///////      
#                                                           
#        Version 4.2.0 Revision 14319 Hash 8432f48          
#                  MPI+SLK+OpenMP Build                     
#                http://www.yambo-code.org                  
#
# Joint density of states @ Q(1) [q->0 direction] :0.1000E-4  0.000     0.000   
#
# - Energies      are Teter 93(XC)
# - The Green`s function is Retarded -
#
#   BSK|Identifier              :6493
#      |Dimension               :199
#      |Bands                   :1 - 200
#      |Exchange           [res]: yes
#      |Correlation        [res]: no
#      |Kernel`s coupling       : no
#      |Exchange           [cpl]: no
#      |Correlation        [cpl]: no
#      |W interaction is bare   : no
#      |ALDA kernel in R-space  : no
#      |RL vectors    [exchange]:9045
#      |E/h energy range    [ev]:-1.000000 - -1.000000
#      |Coupling range     [o/o]: 100.0000 -  100.0000
#
#  E/ev[1]    jdos-Im[2] jdos-Re[3] jdoso-Im[4]jdoso-Re[5]jdos`-Im[6]jdos`-Re[7]
#
  0.000000   0.000000   1.158905   0.000000   1.166903
 0.1502E-1  0.1766E-4   1.159     0.1822E-4   1.167   
 0.3003E-1  0.3532E-4   1.159     0.3643E-4   1.167   
 0.4505E-1  0.5299E-4   1.159     0.5465E-4   1.167   
 0.6006E-1  0.7065E-4   1.159     0.7287E-4   1.167   
 0.7508E-1  0.8832E-4   1.159     0.9109E-4   1.167   
 0.9009E-1  0.1060E-3   1.159     0.1093E-3   1.167   
 0.1051     0.1236E-3   1.159     0.1275E-3   1.167   
 0.1201     0.1413E-3   1.159     0.1458E-3   1.167   
 0.1351     0.1590E-3   1.159     0.1640E-3   1.167   
 0.1502     0.1767E-3   1.159     0.1822E-3   1.167   
 0.1652     0.1943E-3   1.159     0.2005E-3   1.167   
 0.1802     0.2120E-3   1.159     0.2187E-3   1.167   
 0.1952     0.2297E-3   1.159     0.2369E-3   1.167   
 0.2102     0.2474E-3   1.159     0.2552E-3   1.167   
 0.2252     0.2651E-3   1.159     0.2734E-3   1.167   
 0.2402     0.2828E-3   1.159     0.2917E-3   1.167   
 0.2553     0.3005E-3   1.159     0.3099E-3   1.167   
 0.2703     0.3182E-3   1.159     0.3282E-3   1.167   
 0.2853     0.3359E-3   1.159     0.3465E-3   1.167   
 0.3003     0.3536E-3   1.159     0.3648E-3   1.167   
 0.3153     0.3713E-3   1.159     0.3830E-3   1.168   
 0.3303     0.3891E-3   1.160     0.4013E-3   1.168   
 0.3453     0.4068E-3   1.160     0.4196E-3   1.168   
 0.3604     0.4246E-3   1.160     0.4379E-3   1.168   
 0.3754     0.4423E-3   1.160     0.4562E-3   1.168   
 0.3904     0.4601E-3   1.160     0.4746E-3   1.168   
 0.4054     0.4778E-3   1.160     0.4929E-3   1.168   
 0.4204     0.4956E-3   1.160     0.5112E-3   1.168   
 0.4354     0.5134E-3   1.160     0.5296E-3   1.168   
 0.4505     0.5312E-3   1.160     0.5479E-3   1.168   
 0.4655     0.5490E-3   1.160     0.5663E-3   1.168   
 0.4805     0.5668E-3   1.160     0.5847E-3   1.168   
 0.4955     0.5846E-3   1.160     0.6031E-3   1.168   
 0.5105     0.6024E-3   1.160     0.6214E-3   1.168   
 0.5255     0.6203E-3   1.161     0.6399E-3   1.169   
 0.5405     0.6381E-3   1.161     0.6583E-3   1.169   
 0.5556     0.6560E-3   1.161     0.6767E-3   1.169   
 0.5706     0.6738E-3   1.161     0.6951E-3   1.169   
 0.5856     0.6917E-3   1.161     0.7136E-3   1.169   
 0.6006     0.7096E-3   1.161     0.7321E-3   1.169   
 0.6156     0.7275E-3   1.161     0.7505E-3   1.169   
 0.6306     0.7454E-3   1.161     0.7690E-3   1.169   
 0.6456     0.7634E-3   1.161     0.7875E-3   1.169   
 0.6607     0.7813E-3   1.161     0.8061E-3   1.170   
 0.6757     0.7992E-3   1.162     0.8246E-3   1.170   
 0.6907     0.8172E-3   1.162     0.8431E-3   1.170   
 0.7057     0.8352E-3   1.162     0.8617E-3   1.170   
 0.7207     0.8532E-3   1.162     0.8803E-3   1.170   
 0.7357     0.8712E-3   1.162     0.8989E-3   1.170   
 0.7508     0.8892E-3   1.162     0.9175E-3   1.170   
 0.7658     0.9073E-3   1.162     0.9361E-3   1.170   
 0.7808     0.9253E-3   1.163     0.9547E-3   1.171   
 0.7958     0.9434E-3   1.163     0.9734E-3   1.171   
 0.8108     0.9615E-3   1.163     0.9921E-3   1.171   
 0.8258     0.9796E-3   1.163     0.1011E-2   1.171   
 0.8408     0.9977E-3   1.163     0.1029E-2   1.171   
 0.8559     0.1016E-2   1.163     0.1048E-2   1.171   
 0.8709     0.1034E-2   1.163     0.1067E-2   1.172   
 0.8859     0.1052E-2   1.164     0.1086E-2   1.172   
 0.9009     0.1070E-2   1.164     0.1105E-2   1.172   
 0.9159     0.1089E-2   1.164     0.1123E-2   1.172   
 0.9309     0.1107E-2   1.164     0.1142E-2   1.172   
 0.9459     0.1125E-2   1.164     0.1161E-2   1.172   
 0.9610     0.1143E-2   1.164     0.1180E-2   1.173   
 0.9760     0.1162E-2   1.165     0.1199E-2   1.173   
    0.9910     0.0012     1.1647     0.0012     1.1729
    1.0060     0.0012     1.1649     0.0012     1.1731
    1.0210     0.0012     1.1651     0.0013     1.1733
    1.0360     0.0012     1.1653     0.0013     1.1735
    1.0511     0.0013     1.1654     0.0013     1.1737
    1.0661     0.0013     1.1656     0.0013     1.1738
    1.0811     0.0013     1.1658     0.0013     1.1740
    1.0961     0.0013     1.1660     0.0014     1.1742
    1.1111     0.0013     1.1662     0.0014     1.1745
    1.1261     0.0013     1.1664     0.0014     1.1747
    1.1411     0.0014     1.1666     0.0014     1.1749
    1.1562     0.0014     1.1668     0.0014     1.1751
    1.1712     0.0014     1.1670     0.0014     1.1753
    1.1862     0.0014     1.1673     0.0015     1.1755
    1.2012     0.0014     1.1675     0.0015     1.1757
    1.2162     0.0015     1.1677     0.0015     1.1760
    1.2312     0.0015     1.1679     0.0015     1.1762
    1.2462     0.0015     1.1681     0.0015     1.1764
    1.2613     0.0015     1.1684     0.0016     1.1767
    1.2763     0.0015     1.1686     0.0016     1.1769
    1.2913     0.0016     1.1688     0.0016     1.1771
    1.3063     0.0016     1.1690     0.0016     1.1774
    1.3213     0.0016     1.1693     0.0016     1.1776
    1.3363     0.0016     1.1695     0.0017     1.1779
    1.3514     0.0016     1.1698     0.0017     1.1781
    1.3664     0.0016     1.1700     0.0017     1.1784
    1.3814     0.0017     1.1703     0.0017     1.1786
    1.3964     0.0017     1.1705     0.0017     1.1789
    1.4114     0.0017     1.1708     0.0018     1.1791
    1.4264     0.0017     1.1710     0.0018     1.1794
    1.4414     0.0017     1.1713     0.0018     1.1797
    1.4565     0.0018     1.1715     0.0018     1.1799
    1.4715     0.0018     1.1718     0.0018     1.1802
    1.4865     0.0018     1.1721     0.0019     1.1805
    1.5015     0.0018     1.1723     0.0019     1.1808
    1.5165     0.0018     1.1726     0.0019     1.1811
    1.5315     0.0019     1.1729     0.0019     1.1813
    1.5465     0.0019     1.1732     0.0019     1.1816
    1.5616     0.0019     1.1735     0.0020     1.1819
    1.5766     0.0019     1.1737     0.0020     1.1822
    1.5916     0.0019     1.1740     0.0020     1.1825
    1.6066     0.0020     1.1743     0.0020     1.1828
    1.6216     0.0020     1.1746     0.0020     1.1831
    1.6366     0.0020     1.1749     0.0021     1.1834
    1.6517     0.0020     1.1752     0.0021     1.1837
    1.6667     0.0020     1.1755     0.0021     1.1841
    1.6817     0.0020     1.1758     0.0021     1.1844
    1.6967     0.0021     1.1761     0.0021     1.1847
    1.7117     0.0021     1.1764     0.0022     1.1850
    1.7267     0.0021     1.1768     0.0022     1.1853
    1.7417     0.0021     1.1771     0.0022     1.1857
    1.7568     0.0021     1.1774     0.0022     1.1860
    1.7718     0.0022     1.1777     0.0022     1.1863
    1.7868     0.0022     1.1781     0.0023     1.1867
    1.8018     0.0022     1.1784     0.0023     1.1870
    1.8168     0.0022     1.1787     0.0023     1.1874
    1.8318     0.0022     1.1791     0.0023     1.1877
    1.8468     0.0023     1.1794     0.0023     1.1881
    1.8619     0.0023     1.1797     0.0024     1.1884
    1.8769     0.0023     1.1801     0.0024     1.1888
    1.8919     0.0023     1.1804     0.0024     1.1891
    1.9069     0.0023     1.1808     0.0024     1.1895
    1.9219     0.0024     1.1811     0.0024     1.1899
    1.9369     0.0024     1.1815     0.0025     1.1902
    1.9520     0.0024     1.1818     0.0025     1.1906
    1.9670     0.0024     1.1822     0.0025     1.1910
    1.9820     0.0024     1.1826     0.0025     1.1913
    1.9970     0.0025     1.1829     0.0026     1.1917
    2.0120     0.0025     1.1833     0.0026     1.1921
    2.0270     0.0025     1.1837     0.0026     1.1925
    2.0420     0.0025     1.1841     0.0026     1.1929
    2.0571     0.0026     1.1845     0.0026     1.1933
    2.0721     0.0026     1.1848     0.0027     1.1937
    2.0871     0.0026     1.1852     0.0027     1.1941
    2.1021     0.0026     1.1856     0.0027     1.1945
    2.1171     0.0026     1.1860     0.0027     1.1949
    2.1321     0.0027     1.1864     0.0027     1.1953
    2.1471     0.0027     1.1868     0.0028     1.1957
    2.1622     0.0027     1.1872     0.0028     1.1961
    2.1772     0.0027     1.1876     0.0028     1.1966
    2.1922     0.0027     1.1880     0.0028     1.1970
    2.2072     0.0028     1.1884     0.0029     1.1974
    2.2222     0.0028     1.1889     0.0029     1.1978
    2.2372     0.0028     1.1893     0.0029     1.1983
    2.2523     0.0028     1.1897     0.0029     1.1987
    2.2673     0.0028     1.1901     0.0029     1.1992
    2.2823     0.0029     1.1905     0.0030     1.1996
    2.2973     0.0029     1.1910     0.0030     1.2000
    2.3123     0.0029     1.1914     0.0030     1.2005
    2.3273     0.0029     1.1919     0.0030     1.2009
    2.3423     0.0030     1.1923     0.0031     1.2014
    2.3574     0.0030     1.1927     0.0031     1.2019
    2.3724     0.0030     1.1932     0.0031     1.2023
    2.3874     0.0030     1.1936     0.0031     1.2028
    2.4024     0.0030     1.1941     0.0031     1.2033
    2.4174     0.0031     1.1946     0.0032     1.2037
    2.4324     0.0031     1.1950     0.0032     1.2042
    2.4474     0.0031     1.1955     0.0032     1.2047
    2.4625     0.0031     1.1959     0.0032     1.2052
    2.4775     0.0031     1.1964     0.0033     1.2057
    2.4925     0.0032     1.1969     0.0033     1.2062
    2.5075     0.0032     1.1974     0.0033     1.2067
    2.5225     0.0032     1.1978     0.0033     1.2072
    2.5375     0.0032     1.1983     0.0034     1.2077
    2.5526     0.0033     1.1988     0.0034     1.2082
    2.5676     0.0033     1.1993     0.0034     1.2087
    2.5826     0.0033     1.1998     0.0034     1.2092
    2.5976     0.0033     1.2003     0.0034     1.2097
    2.6126     0.0034     1.2008     0.0035     1.2102
    2.6276     0.0034     1.2013     0.0035     1.2107
    2.6426     0.0034     1.2018     0.0035     1.2113
    2.6577     0.0034     1.2023     0.0035     1.2118
    2.6727     0.0034     1.2028     0.0036     1.2123
    2.6877     0.0035     1.2034     0.0036     1.2129
    2.7027     0.0035     1.2039     0.0036     1.2134
    2.7177     0.0035     1.2044     0.0036     1.2140
    2.7327     0.0035     1.2049     0.0037     1.2145
    2.7477     0.0036     1.2055     0.0037     1.2151
    2.7628     0.0036     1.2060     0.0037     1.2156
    2.7778     0.0036     1.2065     0.0037     1.2162
    2.7928     0.0036     1.2071     0.0038     1.2167
    2.8078     0.0037     1.2076     0.0038     1.2173
    2.8228     0.0037     1.2082     0.0038     1.2179
    2.8378     0.0037     1.2087     0.0038     1.2184
    2.8529     0.0037     1.2093     0.0039     1.2190
    2.8679     0.0037     1.2099     0.0039     1.2196
    2.8829     0.0038     1.2104     0.0039     1.2202
    2.8979     0.0038     1.2110     0.0039     1.2208
    2.9129     0.0038     1.2116     0.0040     1.2214
    2.9279     0.0038     1.2121     0.0040     1.2220
    2.9429     0.0039     1.2127     0.0040     1.2226
    2.9580     0.0039     1.2133     0.0040     1.2232
    2.9730     0.0039     1.2139     0.0041     1.2238
    2.9880     0.0039     1.2145     0.0041     1.2244
    3.0030     0.0040     1.2151     0.0041     1.2250
    3.0180     0.0040     1.2157     0.0041     1.2256
    3.0330     0.0040     1.2163     0.0042     1.2262
    3.0480     0.0040     1.2169     0.0042     1.2269
    3.0631     0.0041     1.2175     0.0042     1.2275
    3.0781     0.0041     1.2181     0.0042     1.2281
    3.0931     0.0041     1.2187     0.0043     1.2288
    3.1081     0.0041     1.2193     0.0043     1.2294
    3.1231     0.0042     1.2199     0.0043     1.2301
    3.1381     0.0042     1.2206     0.0044     1.2307
    3.1532     0.0042     1.2212     0.0044     1.2314
    3.1682     0.0042     1.2218     0.0044     1.2320
    3.1832     0.0043     1.2225     0.0044     1.2327
    3.1982     0.0043     1.2231     0.0045     1.2334
    3.2132     0.0043     1.2238     0.0045     1.2340
    3.2282     0.0043     1.2244     0.0045     1.2347
    3.2432     0.0044     1.2251     0.0045     1.2354
    3.2583     0.0044     1.2257     0.0046     1.2361
    3.2733     0.0044     1.2264     0.0046     1.2368
    3.2883     0.0044     1.2271     0.0046     1.2375
    3.3033     0.0045     1.2277     0.0047     1.2382
    3.3183     0.0045     1.2284     0.0047     1.2389
    3.3333     0.0045     1.2291     0.0047     1.2396
    3.3483     0.0046     1.2298     0.0047     1.2403
    3.3634     0.0046     1.2304     0.0048     1.2410
    3.3784     0.0046     1.2311     0.0048     1.2417
    3.3934     0.0046     1.2318     0.0048     1.2424
    3.4084     0.0047     1.2325     0.0049     1.2431
    3.4234     0.0047     1.2332     0.0049     1.2439
    3.4384     0.0047     1.2339     0.0049     1.2446
    3.4535     0.0047     1.2346     0.0049     1.2454
    3.4685     0.0048     1.2354     0.0050     1.2461
    3.4835     0.0048     1.2361     0.0050     1.2468
    3.4985     0.0048     1.2368     0.0050     1.2476
    3.5135     0.0049     1.2375     0.0051     1.2484
    3.5285     0.0049     1.2383     0.0051     1.2491
    3.5435     0.0049     1.2390     0.0051     1.2499
    3.5586     0.0049     1.2397     0.0051     1.2506
    3.5736     0.0050     1.2405     0.0052     1.2514
    3.5886     0.0050     1.2412     0.0052     1.2522
    3.6036     0.0050     1.2420     0.0052     1.2530
    3.6186     0.0051     1.2427     0.0053     1.2538
    3.6336     0.0051     1.2435     0.0053     1.2546
    3.6486     0.0051     1.2443     0.0053     1.2554
    3.6637     0.0051     1.2450     0.0054     1.2562
    3.6787     0.0052     1.2458     0.0054     1.2570
    3.6937     0.0052     1.2466     0.0054     1.2578
    3.7087     0.0052     1.2474     0.0055     1.2586
    3.7237     0.0053     1.2481     0.0055     1.2594
    3.7387     0.0053     1.2489     0.0055     1.2602
    3.7538     0.0053     1.2497     0.0055     1.2611
    3.7688     0.0053     1.2505     0.0056     1.2619
    3.7838     0.0054     1.2513     0.0056     1.2627
    3.7988     0.0054     1.2521     0.0056     1.2636
    3.8138     0.0054     1.2530     0.0057     1.2644
    3.8288     0.0055     1.2538     0.0057     1.2653
    3.8438     0.0055     1.2546     0.0057     1.2662
    3.8589     0.0055     1.2554     0.0058     1.2670
    3.8739     0.0056     1.2563     0.0058     1.2679
    3.8889     0.0056     1.2571     0.0058     1.2688
    3.9039     0.0056     1.2579     0.0059     1.2696
    3.9189     0.0057     1.2588     0.0059     1.2705
    3.9339     0.0057     1.2596     0.0059     1.2714
    3.9489     0.0057     1.2605     0.0060     1.2723
    3.9640     0.0057     1.2613     0.0060     1.2732
    3.9790     0.0058     1.2622     0.0060     1.2741
    3.9940     0.0058     1.2631     0.0061     1.2750
    4.0090     0.0058     1.2640     0.0061     1.2759
    4.0240     0.0059     1.2648     0.0061     1.2768
    4.0390     0.0059     1.2657     0.0062     1.2778
    4.0541     0.0059     1.2666     0.0062     1.2787
    4.0691     0.0060     1.2675     0.0062     1.2796
    4.0841     0.0060     1.2684     0.0063     1.2806
    4.0991     0.0060     1.2693     0.0063     1.2815
    4.1141     0.0061     1.2702     0.0064     1.2825
    4.1291     0.0061     1.2711     0.0064     1.2834
    4.1441     0.0061     1.2720     0.0064     1.2844
    4.1592     0.0062     1.2730     0.0065     1.2854
    4.1742     0.0062     1.2739     0.0065     1.2863
    4.1892     0.0062     1.2748     0.0065     1.2873
    4.2042     0.0063     1.2758     0.0066     1.2883
    4.2192     0.0063     1.2767     0.0066     1.2893
    4.2342     0.0063     1.2777     0.0066     1.2903
    4.2492     0.0064     1.2786     0.0067     1.2913
    4.2643     0.0064     1.2796     0.0067     1.2923
    4.2793     0.0064     1.2805     0.0068     1.2933
    4.2943     0.0065     1.2815     0.0068     1.2943
    4.3093     0.0065     1.2825     0.0068     1.2953
    4.3243     0.0065     1.2835     0.0069     1.2964
    4.3393     0.0066     1.2844     0.0069     1.2974
    4.3544     0.0066     1.2854     0.0069     1.2984
    4.3694     0.0067     1.2864     0.0070     1.2995
    4.3844     0.0067     1.2874     0.0070     1.3005
    4.3994     0.0067     1.2884     0.0071     1.3016
    4.4144     0.0068     1.2895     0.0071     1.3026
    4.4294     0.0068     1.2905     0.0071     1.3037
    4.4444     0.0068     1.2915     0.0072     1.3048
    4.4595     0.0069     1.2925     0.0072     1.3059
    4.4745     0.0069     1.2936     0.0073     1.3070
    4.4895     0.0070     1.2946     0.0073     1.3081
    4.5045     0.0070     1.2956     0.0073     1.3091
    4.5195     0.0070     1.2967     0.0074     1.3103
    4.5345     0.0071     1.2978     0.0074     1.3114
    4.5495     0.0071     1.2988     0.0075     1.3125
    4.5646     0.0071     1.2999     0.0075     1.3136
    4.5796     0.0072     1.3010     0.0076     1.3147
    4.5946     0.0072     1.3020     0.0076     1.3159
    4.6096     0.0073     1.3031     0.0076     1.3170
    4.6246     0.0073     1.3042     0.0077     1.3182
    4.6396     0.0073     1.3053     0.0077     1.3193
    4.6547     0.0074     1.3064     0.0078     1.3205
    4.6697     0.0074     1.3075     0.0078     1.3217
    4.6847     0.0075     1.3086     0.0079     1.3228
    4.6997     0.0075     1.3098     0.0079     1.3240
    4.7147     0.0075     1.3109     0.0079     1.3252
    4.7297     0.0076     1.3120     0.0080     1.3264
    4.7447     0.0076     1.3132     0.0080     1.3276
    4.7598     0.0077     1.3143     0.0081     1.3288
    4.7748     0.0077     1.3155     0.0081     1.3300
    4.7898     0.0077     1.3166     0.0082     1.3313
    4.8048     0.0078     1.3178     0.0082     1.3325
    4.8198     0.0078     1.3190     0.0083     1.3337
    4.8348     0.0079     1.3201     0.0083     1.3350
    4.8499     0.0079     1.3213     0.0084     1.3362
    4.8649     0.0080     1.3225     0.0084     1.3375
    4.8799     0.0080     1.3237     0.0085     1.3387
    4.8949     0.0080     1.3249     0.0085     1.3400
    4.9099     0.0081     1.3261     0.0086     1.3413
    4.9249     0.0081     1.3274     0.0086     1.3426
    4.9399     0.0082     1.3286     0.0087     1.3439
    4.9550     0.0082     1.3298     0.0087     1.3452
    4.9700     0.0083     1.3310     0.0088     1.3465
    4.9850     0.0083     1.3323     0.0088     1.3478
    5.0000     0.0084     1.3335     0.0089     1.3491
    5.0150     0.0084     1.3348     0.0089     1.3505
    5.0300     0.0084     1.3361     0.0090     1.3518
    5.0450     0.0085     1.3373     0.0090     1.3532
    5.0601     0.0085     1.3386     0.0091     1.3545
    5.0751     0.0086     1.3399     0.0091     1.3559
    5.0901     0.0086     1.3412     0.0092     1.3572
    5.1051     0.0087     1.3425     0.0092     1.3586
    5.1201     0.0087     1.3438     0.0093     1.3600
    5.1351     0.0088     1.3451     0.0093     1.3614
    5.1502     0.0088     1.3464     0.0094     1.3628
    5.1652     0.0089     1.3478     0.0094     1.3642
    5.1802     0.0089     1.3491     0.0095     1.3656
    5.1952     0.0090     1.3504     0.0095     1.3671
    5.2102     0.0090     1.3518     0.0096     1.3685
    5.2252     0.0091     1.3531     0.0097     1.3700
    5.2402     0.0091     1.3545     0.0097     1.3714
    5.2553     0.0092     1.3559     0.0098     1.3729
    5.2703     0.0092     1.3573     0.0098     1.3743
    5.2853     0.0093     1.3586     0.0099     1.3758
    5.3003     0.0093     1.3600     0.0099     1.3773
    5.3153     0.0094     1.3614     0.0100     1.3788
    5.3303     0.0094     1.3629     0.0101     1.3803
    5.3453     0.0095     1.3643     0.0101     1.3818
    5.3604     0.0095     1.3657     0.0102     1.3834
    5.3754     0.0096     1.3671     0.0102     1.3849
    5.3904     0.0096     1.3686     0.0103     1.3864
    5.4054     0.0097     1.3700     0.0104     1.3880
    5.4204     0.0098     1.3715     0.0104     1.3895
    5.4354     0.0098     1.3730     0.0105     1.3911
    5.4505     0.0099     1.3744     0.0106     1.3927
    5.4655     0.0099     1.3759     0.0106     1.3943
    5.4805     0.0100     1.3774     0.0107     1.3959
   5.49550    0.01003    1.37891    0.01076    1.39749
   5.51051    0.01009    1.38042    0.01082    1.39911
   5.52553    0.01014    1.38194    0.01089    1.40073
   5.54054    0.01020    1.38346    0.01095    1.40237
   5.55556    0.01026    1.38500    0.01102    1.40402
   5.57057    0.01032    1.38654    0.01109    1.40568
   5.58559    0.01038    1.38810    0.01116    1.40735
   5.60060    0.01043    1.38966    0.01123    1.40903
   5.61562    0.01049    1.39123    0.01130    1.41072
   5.63063    0.01055    1.39281    0.01137    1.41242
   5.64565    0.01062    1.39439    0.01144    1.41413
   5.66066    0.01068    1.39599    0.01151    1.41585
   5.67568    0.01074    1.39760    0.01158    1.41758
   5.69069    0.01080    1.39921    0.01166    1.41933
   5.70571    0.01086    1.40084    0.01173    1.42108
   5.72072    0.01092    1.40247    0.01181    1.42285
   5.73574    0.01099    1.40412    0.01188    1.42462
   5.75075    0.01105    1.40577    0.01196    1.42641
   5.76577    0.01112    1.40743    0.01203    1.42821
   5.78078    0.01118    1.40911    0.01211    1.43002
   5.79580    0.01125    1.41079    0.01219    1.43184
   5.81081    0.01131    1.41248    0.01227    1.43368
   5.82583    0.01138    1.41418    0.01235    1.43552
   5.84084    0.01145    1.41590    0.01243    1.43738
   5.85586    0.01151    1.41762    0.01251    1.43925
   5.87087    0.01158    1.41935    0.01259    1.44114
   5.88589    0.01165    1.42110    0.01267    1.44303
   5.90090    0.01172    1.42285    0.01276    1.44494
   5.91592    0.01179    1.42461    0.01284    1.44686
   5.93093    0.01186    1.42639    0.01293    1.44879
   5.94595    0.01193    1.42817    0.01301    1.45074
   5.96096    0.01200    1.42996    0.01310    1.45269
   5.97598    0.01207    1.43177    0.01319    1.45467
   5.99099    0.01214    1.43359    0.01328    1.45665
   6.00601    0.01222    1.43542    0.01337    1.45865
   6.02102    0.01229    1.43725    0.01346    1.46066
   6.03604    0.01236    1.43910    0.01355    1.46269
   6.05105    0.01244    1.44096    0.01365    1.46473
   6.06607    0.01252    1.44284    0.01374    1.46678
   6.08108    0.01259    1.44472    0.01384    1.46885
   6.09610    0.01267    1.44661    0.01393    1.47093
   6.11111    0.01275    1.44852    0.01403    1.47303
   6.12613    0.01282    1.45044    0.01413    1.47514
   6.14114    0.01290    1.45237    0.01423    1.47727
   6.15616    0.01298    1.45431    0.01433    1.47941
   6.17117    0.01306    1.45627    0.01443    1.48156
   6.18619    0.01314    1.45823    0.01454    1.48374
   6.20120    0.01323    1.46021    0.01464    1.48592
   6.21622    0.01331    1.46220    0.01475    1.48813
   6.23123    0.01339    1.46420    0.01485    1.49035
   6.24625    0.01347    1.46622    0.01496    1.49258
   6.26126    0.01356    1.46824    0.01507    1.49483
   6.27628    0.01364    1.47028    0.01518    1.49710
   6.29129    0.01373    1.47234    0.01530    1.49939
   6.30631    0.01382    1.47440    0.01541    1.50169
   6.32132    0.01391    1.47649    0.01553    1.50401
   6.33634    0.01399    1.47858    0.01565    1.50634
   6.35135    0.01408    1.48068    0.01577    1.50870
   6.36637    0.01417    1.48280    0.01589    1.51107
   6.38138    0.01426    1.48494    0.01601    1.51346
   6.39640    0.01436    1.48708    0.01613    1.51587
   6.41141    0.01445    1.48924    0.01626    1.51830
   6.42643    0.01454    1.49142    0.01639    1.52075
   6.44144    0.01464    1.49361    0.01652    1.52321
   6.45646    0.01473    1.49581    0.01665    1.52570
   6.47147    0.01483    1.49803    0.01678    1.52820
   6.48649    0.01493    1.50026    0.01692    1.53073
   6.50150    0.01503    1.50251    0.01706    1.53327
   6.51652    0.01513    1.50477    0.01720    1.53584
   6.53153    0.01523    1.50704    0.01734    1.53843
   6.54655    0.01533    1.50933    0.01748    1.54104
   6.56156    0.01543    1.51164    0.01763    1.54367
   6.57658    0.01553    1.51396    0.01778    1.54632
   6.59159    0.01564    1.51630    0.01793    1.54900
   6.60661    0.01574    1.51866    0.01808    1.55169
   6.62162    0.01585    1.52102    0.01824    1.55441
   6.63664    0.01596    1.52341    0.01840    1.55716
   6.65165    0.01607    1.52581    0.01856    1.55993
   6.66667    0.01618    1.52823    0.01873    1.56272
   6.68168    0.01629    1.53067    0.01890    1.56554
   6.69670    0.01640    1.53312    0.01907    1.56838
   6.71171    0.01652    1.53559    0.01924    1.57125
   6.72673    0.01663    1.53807    0.01942    1.57415
   6.74174    0.01675    1.54058    0.01960    1.57707
   6.75676    0.01687    1.54309    0.01979    1.58002
   6.77177    0.01698    1.54563    0.01998    1.58299
   6.78679    0.01711    1.54819    0.02017    1.58600
   6.80180    0.01723    1.55076    0.02037    1.58903
   6.81682    0.01735    1.55336    0.02057    1.59210
   6.83183    0.01747    1.55597    0.02077    1.59519
   6.84685    0.01760    1.55860    0.02098    1.59831
   6.86186    0.01773    1.56125    0.02119    1.60147
   6.87688    0.01786    1.56392    0.02141    1.60466
   6.89189    0.01799    1.56660    0.02164    1.60788
   6.90691    0.01812    1.56931    0.02187    1.61113
   6.92192    0.01825    1.57204    0.02210    1.61442
   6.93694    0.01839    1.57478    0.02234    1.61774
   6.95195    0.01852    1.57755    0.02259    1.62110
   6.96697    0.01866    1.58034    0.02284    1.62450
   6.98198    0.01880    1.58315    0.02310    1.62793
   6.99700    0.01894    1.58598    0.02337    1.63140
   7.01201    0.01909    1.58883    0.02364    1.63492
   7.02703    0.01923    1.59170    0.02393    1.63847
   7.04204    0.01938    1.59460    0.02421    1.64207
   7.05706    0.01953    1.59751    0.02451    1.64571
   7.07207    0.01968    1.60045    0.02482    1.64939
   7.08709    0.01983    1.60342    0.02514    1.65312
   7.10210    0.01999    1.60640    0.02546    1.65689
   7.11712    0.02015    1.60941    0.02580    1.66072
   7.13213    0.02031    1.61244    0.02615    1.66459
   7.14715    0.02047    1.61550    0.02651    1.66852
   7.16216    0.02063    1.61858    0.02688    1.67250
   7.17718    0.02080    1.62169    0.02726    1.67653
   7.19219    0.02096    1.62481    0.02766    1.68062
   7.20721    0.02113    1.62797    0.02808    1.68477
   7.22222    0.02131    1.63115    0.02851    1.68898
   7.23724    0.02148    1.63436    0.02896    1.69325
   7.25225    0.02166    1.63759    0.02942    1.69760
   7.26727    0.02184    1.64085    0.02991    1.70200
   7.28228    0.02202    1.64414    0.03041    1.70648
   7.29730    0.02221    1.64745    0.03094    1.71104
   7.31231    0.02240    1.65079    0.03149    1.71566
   7.32733    0.02259    1.65417    0.03207    1.72038
   7.34234    0.02278    1.65757    0.03268    1.72517
   7.35736    0.02298    1.66100    0.03332    1.73005
   7.37237    0.02318    1.66445    0.03399    1.73502
   7.38739    0.02338    1.66794    0.03469    1.74009
   7.40240    0.02359    1.67146    0.03544    1.74526
   7.41742    0.02380    1.67501    0.03623    1.75054
   7.43243    0.02401    1.67859    0.03706    1.75593
   7.44745    0.02423    1.68221    0.03795    1.76144
   7.46246    0.02445    1.68585    0.03889    1.76707
   7.47748    0.02467    1.68953    0.03990    1.77283
   7.49249    0.02490    1.69324    0.04097    1.77874
   7.50751    0.02513    1.69699    0.04212    1.78478
   7.52252    0.02536    1.70077    0.04336    1.79099
   7.53754    0.02560    1.70459    0.04468    1.79737
   7.55255    0.02584    1.70844    0.04612    1.80392
   7.56757    0.02609    1.71233    0.04767    1.81066
   7.58258    0.02634    1.71626    0.04936    1.81761
   7.59760    0.02660    1.72022    0.05119    1.82478
   7.61261    0.02686    1.72422    0.05320    1.83217
   7.62763    0.02712    1.72827    0.05541    1.83982
   7.64264    0.02739    1.73235    0.05783    1.84774
   7.65766    0.02767    1.73647    0.06051    1.85594
   7.67267    0.02795    1.74063    0.06349    1.86446
   7.68769    0.02823    1.74484    0.06682    1.87332
   7.70270    0.02853    1.74909    0.07054    1.88254
   7.71772    0.02882    1.75338    0.07473    1.89214
   7.73273    0.02913    1.75772    0.07948    1.90215
   7.74775    0.02944    1.76210    0.08488    1.91260
   7.76276    0.02975    1.76653    0.09107    1.92350
   7.77778    0.03007    1.77100    0.09819    1.93488
   7.79279    0.03040    1.77553    0.10643    1.94673
   7.80781    0.03074    1.78010    0.11604    1.95902
   7.82282    0.03108    1.78473    0.12730    1.97171
   7.83784    0.03143    1.78940    0.14056    1.98468
   7.85285    0.03179    1.79413    0.15628    1.99771
   7.86787    0.03216    1.79891    0.17495    2.01046
   7.88288    0.03253    1.80375    0.19716    2.02235
   7.89790    0.03292    1.80865    0.22353    2.03250
   7.91291    0.03331    1.81359    0.25458    2.03955
   7.92793    0.03371    1.81861    0.29052    2.04158
   7.94294    0.03412    1.82368    0.33083    2.03604
   7.95796    0.03455    1.82881    0.37367    2.01997
   7.97297    0.03498    1.83400    0.41530    1.99076
   7.98799    0.03542    1.83926    0.44997    1.94757
   8.00300    0.03588    1.84459    0.47112    1.89293
   8.01802    0.03635    1.84998    0.47392    1.83322
   8.03303    0.03683    1.85545    0.45781    1.77683
   8.04805    0.03732    1.86098    0.42679    1.73086
   8.06306    0.03783    1.86659    0.38726    1.69879
   8.07808    0.03835    1.87228    0.34534    1.68042
   8.09309    0.03889    1.87804    0.30527    1.67342
   8.10811    0.03945    1.88389    0.26929    1.67484
   8.12312    0.04002    1.88981    0.23816    1.68197
   8.13814    0.04061    1.89583    0.21182    1.69275
   8.15315    0.04121    1.90192    0.18979    1.70571
   8.16817    0.04184    1.90811    0.17146    1.71986
   8.18318    0.04249    1.91439    0.15624    1.73457
   8.19820    0.04316    1.92077    0.14359    1.74945
   8.21321    0.04385    1.92725    0.13308    1.76426
   8.22823    0.04457    1.93383    0.12431    1.77887
   8.24324    0.04532    1.94052    0.11700    1.79322
   8.25826    0.04609    1.94732    0.11090    1.80728
   8.27327    0.04689    1.95423    0.10580    1.82105
   8.28829    0.04773    1.96125    0.10156    1.83455
   8.30330    0.04860    1.96841    0.09804    1.84780
   8.31832    0.04950    1.97568    0.09514    1.86083
   8.33333    0.05045    1.98310    0.09278    1.87368
   8.34835    0.05143    1.99064    0.09089    1.88637
   8.36336    0.05246    1.99834    0.08941    1.89894
   8.37838    0.05354    2.00618    0.08831    1.91142
   8.39339    0.05468    2.01418    0.08755    1.92383
   8.40841    0.05587    2.02234    0.08710    1.93622
   8.42342    0.05712    2.03068    0.08694    1.94861
   8.43844    0.05844    2.03919    0.08706    1.96102
   8.45345    0.05983    2.04789    0.08745    1.97350
   8.46847    0.06130    2.05678    0.08810    1.98605
   8.48348    0.06287    2.06589    0.08902    1.99872
   8.49850    0.06452    2.07522    0.09021    2.01153
   8.51351    0.06629    2.08477    0.09167    2.02450
   8.52853    0.06818    2.09457    0.09343    2.03768
   8.54354    0.07020    2.10463    0.09550    2.05108
   8.55856    0.07236    2.11496    0.09790    2.06474
   8.57357    0.07470    2.12559    0.10069    2.07869
   8.58859    0.07722    2.13652    0.10388    2.09296
   8.60360    0.07995    2.14778    0.10754    2.10759
   8.61862    0.08292    2.15938    0.11174    2.12262
   8.63363    0.08616    2.17137    0.11654    2.13807
   8.64865    0.08972    2.18375    0.12205    2.15398
   8.66366    0.09363    2.19655    0.12840    2.17038
   8.67868    0.09796    2.20981    0.13572    2.18729
  8.693694   0.102780   2.223546   0.144210   2.204728
  8.708709   0.108165   2.237795   0.154098   2.222674
  8.723724   0.114218   2.252587   0.165669   2.241082
  8.738739   0.121063   2.267942   0.179275   2.259859
  8.753754   0.128850   2.283888   0.195344   2.278807
  8.768769   0.137765   2.300428   0.214383   2.297601
  8.783784   0.148039   2.317550   0.236976   2.315701
  8.798799   0.159955   2.335210   0.263737   2.332256
  8.813814   0.173862   2.353311   0.295206   2.345983
  8.828829   0.190184   2.371664   0.331636   2.355011
  8.843843   0.209425   2.389955   0.372598   2.356854
  8.858859   0.232167   2.407660   0.416406   2.348577
  8.873874   0.259023   2.423957   0.459505   2.327505
  8.888889   0.290551   2.437591   0.496309   2.292575
  8.903905   0.327031   2.446736   0.520243   2.245995
  8.918920   0.368104   2.448956   0.526215   2.193837
  8.933934   0.412200   2.441325   0.513222   2.144462
  8.948950   0.455911   2.421114   0.484926   2.105216
  8.963964   0.493784   2.387090   0.447655   2.079952
  8.978979   0.519251   2.341174   0.407638   2.068781
  8.993995   0.527016   2.289194   0.369318   2.069500
  9.009009   0.515727   2.239443   0.335110   2.079173
  9.024024   0.488754   2.199453   0.305901   2.095090
  9.039040   0.452336   2.173359   0.281683   2.115144
  9.054054   0.412782   2.161507   0.262021   2.137839
  9.069069   0.374691   2.161810   0.246337   2.162171
  9.084085   0.340612   2.171342   0.234056   2.187511
  9.099099   0.311523   2.187364   0.224664   2.213480
  9.114114   0.287464   2.207715   0.217734   2.239862
  9.129129   0.268025   2.230870   0.212921   2.266556
  9.144144   0.252633   2.255795   0.209956   2.293525
  9.159160   0.240711   2.281844   0.208636   2.320788
  9.174174   0.231748   2.308621   0.208814   2.348386
  9.189190   0.225313   2.335910   0.210389   2.376383
  9.204205   0.221060   2.363605   0.213306   2.404855
  9.219219   0.218719   2.391674   0.217546   2.433891
  9.234235   0.218090   2.420134   0.223129   2.463585
  9.249249   0.219027   2.449035   0.230106   2.494037
  9.264264   0.221436   2.478444   0.238572   2.525344
  9.279280   0.225265   2.508449   0.248658   2.557616
  9.294294   0.230504   2.539145   0.260545   2.590951
  9.309309   0.237178   2.570635   0.274466   2.625455
  9.324325   0.245352   2.603031   0.290719   2.661213
  9.339339   0.255130   2.636446   0.309680   2.698293
  9.354354   0.266657   2.671000   0.331822   2.736735
  9.369370   0.280128   2.706815   0.357729   2.776506
  9.384384   0.295795   2.744005   0.388130   2.817477
  9.399399   0.313974   2.782693   0.423911   2.859377
  9.414415   0.335065   2.822968   0.466140   2.901672
  9.429430   0.359564   2.864901   0.516048   2.943444
  9.444445   0.388086   2.908509   0.574985   2.983209
  9.459460   0.421388   2.953725   0.644237   3.018660
  9.474475   0.460398   3.000342   0.724656   3.046403
  9.489490   0.506223   3.047930   0.815970   3.061780
  9.504505   0.560157   3.095729   0.915706   3.059098
  9.519520   0.623625   3.142479   1.017929   3.032780
  9.534534   0.698048   3.186214   1.112645   2.979797
  9.549550   0.784533   3.224068   1.187288   2.902969
  9.564565   0.883360   3.252184   1.231179   2.812897
  9.579579   0.993275   3.266004   1.241080   2.725675
  9.594595   1.110875   3.261080   1.223464   2.656648
  9.609610   1.230703   3.234463   1.191429   2.614594
  9.624624   1.346476   3.185746   1.159074   2.600192
  9.639640   1.452756   3.116712   1.137441   2.608245
  9.654655   1.545297   3.029785   1.133327   2.630775
  9.669669   1.619614   2.927612   1.149741   2.659082
  9.684686   1.670335   2.815054   1.186604   2.684735
  9.699700   1.693856   2.701249   1.241091   2.700174
  9.714715   1.692658   2.597707   1.307935   2.699611
  9.729731   1.676363   2.512755   1.380363   2.680103
  9.744745   1.657667   2.446938   1.452020   2.641821
  9.759760   1.646325   2.392946   1.518599   2.586536
  9.774776   1.644961   2.339459   1.577309   2.515287
  9.789790   1.648210   2.276436   1.624305   2.427967
  9.804805   1.645243   2.199974   1.653188   2.325983
  9.819820   1.625096   2.114657   1.657179   2.215360
  9.834835   1.582668   2.031473   1.633665   2.106250
  9.849850   1.521416   1.961816   1.586411   2.008428
  9.864865   1.450773   1.911612   1.522979   1.926781
  9.879880   1.380546   1.879431   1.449781   1.861014
  9.894895   1.316298   1.858849   1.369425   1.809180
  9.909910   1.257763   1.842691   1.282116   1.771272
  9.924925   1.200262   1.826907   1.188929   1.749712
  9.939939   1.138184   1.812455   1.093567   1.747020
  9.954955   1.068716   1.804221   1.001333   1.763510
  9.969971   0.993467   1.807661   0.917039   1.796918
  9.984985   0.917095   1.825776   0.843697   1.843552
  10.00000    0.84467    1.85830    0.78248    1.89960
  10.01502    0.77984    1.90280    0.73329    1.96189
  10.03003    0.72438    1.95616    0.69539    2.02809
  10.04505    0.67868    2.01555    0.66785    2.09662
  10.06006    0.64227    2.07881    0.64986    2.16646
  10.07508    0.61439    2.14449    0.64079    2.23699
  10.09009    0.59422    2.21166    0.64030    2.30778
  10.10511    0.58104    2.27981    0.64834    2.37849
  10.12012    0.57430    2.34870    0.66519    2.44868
  10.13514    0.57366    2.41825    0.69138    2.51773
  10.15015    0.57896    2.48850    0.72771    2.58460
  10.16516    0.59025    2.55950    0.77512    2.64763
  10.18018    0.60777    2.63130    0.83443    2.70429
  10.19520    0.63200    2.70387    0.90590    2.75088
  10.21021    0.66358    2.77704    0.98836    2.78244
  10.22523    0.70341    2.85039    1.07802    2.79326
  10.24024    0.75254    2.92316    1.16732    2.77836
  10.25526    0.81207    2.99403    1.24475    2.73641
  10.27027    0.88297    3.06099    1.29732    2.67287
  10.28529    0.96567    3.12123    1.31573    2.60089
  10.30030    1.05944    3.17127    1.29930    2.53750
  10.31532    1.16183    3.20761    1.25653    2.49700
  10.33033    1.26852    3.22800    1.20070    2.48639
  10.34535    1.37443    3.23269    1.14445    2.50541
  10.36036    1.47584    3.22457    1.09678    2.54956
  10.37538    1.57200    3.20708    1.06286    2.61315
  10.39039    1.66408    3.18137    1.04511    2.69102
  10.40541    1.75178    3.14569    1.04455    2.77917
  10.42042    1.83068    3.09840    1.06165    2.87472
  10.43544    1.89339    3.04261    1.09702    2.97552
  10.45045    1.93484    2.98818    1.15166    3.07983
  10.46547    1.95767    2.94845    1.22718    3.18589
  10.48048    1.97316    2.93371    1.32582    3.29145
  10.49550    1.99709    2.94636    1.45040    3.39334
  10.51051    2.04437    2.98071    1.60403    3.48683
  10.52553    2.12595    3.02525    1.78949    3.56502
  10.54054    2.24770    3.06507    2.00805    3.61838
  10.55556    2.41005    3.08327    2.25771    3.63488
  10.57057    2.60703    3.06243    2.53117    3.60147
  10.58559    2.82540    2.98712    2.81477    3.50728
  10.60060    3.04534    2.84772    3.09008    3.34743
  10.61562    3.24413    2.64362    3.33827    3.12485
  10.63063    3.40130    2.38288    3.54427    2.84796
  10.64565    3.50131    2.07857    3.69673    2.52651
  10.66066    3.53226    1.74617    3.78465    2.17060
  10.67568    3.48458    1.40493    3.79560    1.79464
  10.69069    3.35441    1.08012    3.72011    1.42164
  10.70571    3.14954    0.80009    3.55980    1.08173
  10.72072    2.89129    0.58775    3.33220    0.80310
  10.73574    2.60860    0.45275    3.06684    0.60153
  10.75075    2.32868    0.39066    2.79490    0.47605
  10.76577    2.07064    0.38806    2.53988    0.41266
  10.78078    1.84445    0.42890    2.31344    0.39174
  10.79580    1.65313    0.49868    2.11638    0.39505
  10.81081    1.49567    0.58601    1.94228    0.41022
  10.82583    1.36922    0.68255    1.78255    0.43240
  10.84084    1.27046    0.78233    1.63101    0.46278
  10.85586    1.19621    0.88092    1.48621    0.50476
  10.87087    1.14355    0.97465    1.35030    0.56030
  10.88589    1.10953    1.06011    1.22649    0.62864
  10.90090    1.09070    1.13390    1.11700    0.70706
  10.91592    1.08237    1.19290    1.02249    0.79227
  10.93093    1.07815    1.23524    0.94237    0.88133
  10.94595    1.07039    1.26188    0.87537    0.97202
  10.96096    1.05215    1.27775    0.82002    1.06291
  10.97598    1.01994    1.29094    0.77489    1.15312
  10.99099    0.97523    1.30983    0.73873    1.24220
  11.00601    0.92322    1.33999    0.71052    1.33002
  11.02102    0.87012    1.38307    0.68947    1.41660
  11.03604    0.82086    1.43779    0.67502    1.50209
  11.05105    0.77842    1.50162    0.66681    1.58669
  11.06607    0.74408    1.57196    0.66470    1.67063
  11.08108    0.71812    1.64674    0.66873    1.75413
  11.09610    0.70029    1.72450    0.67912    1.83735
  11.11111    0.69024    1.80433    0.69635    1.92039
  11.12613    0.68765    1.88571    0.72107    2.00319
  11.14114    0.69237    1.96839    0.75421    2.08547
  11.15616    0.70447    2.05231    0.79689    2.16659
  11.17117    0.72425    2.13744    0.85047    2.24539
  11.18619    0.75229    2.22378    0.91631    2.31994
  11.20120    0.78945    2.31124    0.99558    2.38727
  11.21622    0.83691    2.39955    1.08854    2.44315
  11.23123    0.89620    2.48812    1.19369    2.48216
  11.24625    0.96916    2.57587    1.30643    2.49855
  11.26126    1.05792    2.66098    1.41824    2.48831
  11.27628    1.16464    2.74061    1.51753    2.45236
  11.29129    1.29112    2.81057    1.59341    2.39905
  11.30631    1.43813    2.86530    1.64134    2.34294
  11.32132    1.60450    2.89810    1.66662    2.29918
  11.33634    1.78650    2.90215    1.68238    2.27681
  11.35135    1.97792    2.87180    1.70400    2.27583
  11.36637    2.17108    2.80334    1.74400    2.28847
  11.38138    2.35760    2.69468    1.80933    2.30217
  11.39640    2.52801    2.54506    1.90053    2.30232
  11.41141    2.67125    2.35609    2.01111    2.27477
  11.42643    2.77571    2.13337    2.12764    2.20911
  11.44144    2.83130    1.88672    2.23179    2.10261
  11.45646    2.83089    1.62954    2.30537    1.96286
  11.47147    2.77179    1.37808    2.33691    1.80605
  11.48649    2.65756    1.14958    2.32519    1.65105
  11.50150    2.49829    0.95885    2.27790    1.51320
  11.51652    2.30835    0.81543    2.20739    1.40128
  11.53153    2.10354    0.72291    2.12709    1.31735
  11.54655    1.89876    0.67937    2.04895    1.25736
  11.56156    1.70613    0.67847    1.98074    1.21214
  11.57658    1.53377    0.71127    1.92359    1.17009
  11.59159    1.38568    0.76830    1.87119    1.12155
  11.60661    1.26268    0.84120    1.81228    1.06333
  11.62162    1.16367    0.92328    1.73594    1.00077
  11.63664    1.08678    1.00949    1.63734    0.94544
  11.65165    1.02992    1.09601    1.52003    0.90929
  11.66667    0.99114    1.17964    1.39345    0.89940
  11.68168    0.96850    1.25743    1.26810    0.91640
  11.69670    0.95974    1.32627    1.15199    0.95633
  11.71171    0.96168    1.38296    1.04949    1.01343
  11.72673    0.96955    1.42473    0.96205    1.08217
  11.74174    0.97681    1.45056    0.88928    1.15817
  11.75676    0.97610    1.46273    0.82995    1.23832
  11.77177    0.96164    1.46746    0.78258    1.32056
  11.78679    0.93191    1.47329    0.74579    1.40364
  11.80180    0.89010    1.48782    0.71839    1.48684
  11.81682    0.84226    1.51516    0.69950    1.56979
  11.83183    0.79443    1.55569    0.68851    1.65232
  11.84685    0.75092    1.60744    0.68510    1.73439
  11.86186    0.71412    1.66768    0.68924    1.81596
  11.87688    0.68493    1.73391    0.70114    1.89695
  11.89189    0.66339    1.80422    0.72131    1.97710
  11.90691    0.64923    1.87731    0.75053    2.05593
  11.92192    0.64206    1.95235    0.78981    2.13252
  11.93694    0.64162    2.02890    0.84031    2.20532
  11.95195    0.64778    2.10672    0.90312    2.27188
  11.96697    0.66064    2.18572    0.97885    2.32860
  11.98198    0.68052    2.26585    1.06681    2.37058
  11.99700    0.70801    2.34704    1.16390    2.39201
  12.01201    0.74396    2.42911    1.26334    2.38755
  12.02703    0.78952    2.51168    1.35449    2.35503
  12.04204    0.84616    2.59403    1.42489    2.29866
  12.05706    0.91564    2.67486    1.46530    2.23015
  12.07207    0.99990    2.75213    1.47480    2.16525
  12.08709    1.10083    2.82265    1.46175    2.11705
  12.10210    1.21978    2.88190    1.43950    2.09083
  12.11712    1.35681    2.92393    1.42040    2.08365
  12.13213    1.50974    2.94183    1.41183    2.08733
  12.14715    1.67355    2.92874    1.41513    2.09235
  12.16216    1.84052    2.87927    1.42645    2.09113
  12.17718    2.00105    2.79012    1.43903    2.08020
  12.19219    2.14394    2.66008    1.44629    2.06058
  12.20721    2.25563    2.49094    1.44406    2.03598
  12.22222    2.32072    2.29042    1.43054    2.01055
  12.23724    2.32609    2.07490    1.40501    1.98824
  12.25225    2.26735    1.86759    1.36757    1.97374
  12.26727    2.15219    1.69189    1.32052    1.97247
  12.28228    1.99812    1.56412    1.26924    1.98871
  12.29730    1.82627    1.49003    1.22093    2.02370
  12.31231    1.65527    1.46599    1.18240    2.07524
  12.32733    1.49798    1.48285    1.15867    2.13889
  12.34234    1.36122    1.53001    1.15273    2.20920
  12.35736    1.24725    1.59790    1.16593    2.28040
  12.37237    1.15568    1.67901    1.19826    2.34636
  12.38739    1.08490    1.76785    1.24803    2.40049
  12.40240    1.03302    1.86053    1.31106    2.43592
  12.41742    0.99825    1.95417    1.37960    2.44665
  12.43243    0.97913    2.04642    1.44201    2.43009
  12.44745    0.97434    2.13500    1.48480    2.39019
  12.46246    0.98249    2.21744    1.49738    2.33875
  12.47748    1.00156    2.29087    1.47731    2.29227
  12.49249    1.02824    2.35240    1.43163    2.26562
  12.50751    1.05740    2.39999    1.37314    2.26675
  12.52252    1.08232    2.43402    1.31484    2.29604
  12.53754    1.09639    2.45864    1.26654    2.34892
  12.55255    1.09586    2.48151    1.23421    2.41887
  12.56757    1.08178    2.51123    1.22084    2.49928
  12.58258    1.05940    2.55406    1.22765    2.58402
  12.59760    1.03549    2.61236    1.25472    2.66719
  12.61261    1.01597    2.68522    1.30103    2.74266
  12.62763    1.00482    2.77009    1.36384    2.80390
  12.64264    1.00436    2.86408    1.43756    2.84433
  12.65766    1.01582    2.96461    1.51278    2.85913
  12.67267    1.03990    3.06945    1.57662    2.84815
  12.68769    1.07715    3.17662    1.61604    2.81881
  12.70270    1.12805    3.28404    1.62326    2.78576
  12.71772    1.19286    3.38929    1.59991    2.76598
  12.73273    1.27123    3.48950    1.55618    2.77219
  12.74775    1.36163    3.58156    1.50563    2.80938
  12.76276    1.46083    3.66292    1.46020    2.87590
  12.77778    1.56415    3.73301    1.42805    2.96669
  12.79279    1.66704    3.79448    1.41380    3.07597
  12.80781    1.76772    3.85288    1.41982    3.19866
  12.82282    1.86909    3.91386    1.44737    3.33067
  12.83784    1.97780    3.97965    1.49753    3.46862
  12.85285    2.10083    4.04712    1.57152    3.60939
  12.86787    2.24185    4.10884    1.67085    3.74953
  12.88288    2.39893    4.15614    1.79711    3.88470
  12.89790    2.56481    4.18330    1.95137    4.00920
  12.91291    2.73019    4.19092    2.13321    4.11585
  12.92793    2.88917    4.18595    2.33954    4.19648
  12.94294    3.04339    4.17695    2.56360    4.24332
  12.95796    3.20071    4.16757    2.79504    4.25113
  12.97297    3.36915    4.15344    3.02114    4.21899
  12.98799    3.55104    4.12483    3.22887    4.15139
  13.00300    3.74098    4.07197    3.40730    4.05857
  13.01802    3.92744    3.99012    3.55059    3.95568
  13.03303    4.09679    3.88282    3.66056    3.86006
  13.04805    4.23906    3.76262    3.74738    3.78713
  13.06306    4.35412    3.64773    3.82826    3.74659
  13.07808    4.45439    3.55426    3.92444    3.73923
  13.09309    4.56148    3.48809    4.05673    3.75532
  13.10811    4.69821    3.44089    4.24025    3.77531
  13.12312    4.88012    3.39174    4.47992    3.77345
  13.13814    5.10947    3.31343    4.76832    3.72351
  13.15315    5.37458    3.18100    5.08715    3.60517
  13.16817    5.65436    2.97842    5.41263    3.40833
  13.18318    5.92575    2.69995    5.72209    3.13230
  13.19820    6.16797    2.34606    5.99682    2.78068
  13.21321    6.36112    1.91936    6.21923    2.35750
  13.22823    6.48226    1.42556    6.36836    1.86875
  13.24324    6.50477    0.87890    6.41899    1.32826
  13.25826    6.40364    0.30774    6.34691    0.76378
  13.27327    6.16583   -0.24501    6.13940    0.21769
  13.28829    5.79987   -0.73017    5.80516   -0.26111
  13.30330    5.33751   -1.10666    5.37618   -0.63155
  13.31832    4.82492   -1.35360    4.89910   -0.87278
  13.33333    4.30843   -1.47345    4.42101   -0.98734
  13.34835    3.82317   -1.48563    3.97804   -0.99502
  13.36336    3.38918   -1.41645    3.59144   -0.92296
  13.37838    3.01373   -1.29123    3.26979   -0.79792
  13.39339    2.69581   -1.13046    3.01332   -0.64273
  13.40841    2.43034   -0.94905    2.81764   -0.47576
  13.42342    2.21072   -0.75709    2.67566   -0.31184
  13.43844    2.03042   -0.56105    2.57805   -0.16319
  13.45345    1.88365   -0.36487    2.51262   -0.03939
  13.46847    1.76557   -0.17083    2.46397    0.05427
  13.48348    1.67233    0.01986    2.41496    0.11956
  13.49850    1.60096    0.20660    2.35110    0.16677
  13.51351    1.54927    0.38910    2.26598    0.21215
  13.52853    1.51576    0.56712    2.16334    0.27162
  13.54354    1.49944    0.74030    2.05387    0.35485
  13.55856    1.49965    0.90789    1.94955    0.46384
  13.57357    1.51581    1.06863    1.85962    0.59533
  13.58859    1.54696    1.22067    1.78961    0.74392
  13.60360    1.59116    1.36170    1.74215    0.90427
  13.61862    1.64486    1.48972    1.71824    1.07195
  13.63363    1.70281    1.60436    1.71826    1.24339
  13.64865    1.75918    1.70848    1.74258    1.41551
  13.66366    1.81012    1.80871    1.79179    1.58525
  13.67868    1.85632    1.91352    1.86655    1.74891
  13.69369    1.90356    2.02997    1.96716    1.90178
  13.70871    1.96054    2.16095    2.09255    2.03784
  13.72372    2.03619    2.30496    2.23913    2.15039
  13.73874    2.13781    2.45711    2.39960    2.23362
  13.75375    2.27057    2.61045    2.56345    2.28551
  13.76877    2.43734    2.75659    2.71982    2.31019
  13.78378    2.63848    2.88633    2.86245    2.31718
  13.79880    2.87145    2.99025    2.99232    2.31644
  13.81381    3.13090    3.05975    3.11500    2.31287
  13.82883    3.40930    3.08762    3.23469    2.30567
  13.84384    3.69668    3.06787    3.35061    2.29297
  13.85886    3.97945    2.99656    3.45920    2.27696
  13.87387    4.23955    2.87572    3.55935    2.26474
  13.88889    4.45873    2.71824    3.65591    2.26458
  13.90390    4.62738    2.54820    3.75892    2.28158
  13.91892    4.75177    2.39288    3.88092    2.31554
  13.93393    4.85306    2.27194    4.03416    2.36070
  13.94895    4.95948    2.19063    4.22863    2.40675
  13.96396    5.09793    2.14015    4.47107    2.44031
  13.97898    5.28943    2.10106    4.76561    2.44561
  13.99399    5.54707    2.04589    5.11319    2.40347
  14.00901    5.87365    1.94042    5.50937    2.29046
  14.02402    6.25745    1.74676    5.94018    2.08014
  14.03904    6.66916    1.42916    6.37893    1.74696
  14.05406    7.06100    0.96277    6.78378    1.27307
  14.06907    7.37064    0.34387    7.09974    0.65784
  14.08409    7.53195   -0.40097    7.26764   -0.07271
  14.09910    7.49280   -1.21179    7.24030   -0.86203
  14.11411    7.23427   -2.00611    7.00089   -1.63235
  14.12913    6.78026   -2.70084    6.57260   -2.30476
  14.14415    6.18962   -3.23737    6.01200   -2.82315
  14.15916    5.53542   -3.59417    5.38954   -3.16665
  14.17418    4.88204   -3.78376    4.76761   -3.34716
  14.18919    4.27334   -3.83818    4.18899   -3.39554
  14.20420    3.73130   -3.79453    3.67530   -3.34766
  14.21922    3.26209   -3.68580    3.23284   -3.23549
  14.23423    2.86225   -3.53746    2.85864   -3.08370
  14.24925    2.52426   -3.36755    2.54571   -2.90985
  14.26427    2.23914   -3.18810    2.28579   -2.72562
  14.27928    1.99844   -3.00682    2.07112   -2.53857
  14.29429    1.79455   -2.82835    1.89488   -2.35332
  14.30931    1.62113   -2.65544    1.75159   -2.17276
  14.32432    1.47287   -2.48952    1.63687   -1.99861
  14.33934    1.34546   -2.33122    1.54750   -1.83212
  14.35435    1.23540   -2.18071    1.48114   -1.67440
  14.36937    1.13984   -2.03780    1.43615   -1.52677
  14.38438    1.05647   -1.90220    1.41128   -1.39118
  14.39940    0.98339   -1.77347    1.40523   -1.27042
  14.41441    0.91906   -1.65117    1.41590   -1.16829
  14.42943    0.86221   -1.53481    1.43949   -1.08926
  14.44444    0.81180   -1.42397    1.46951   -1.03746
  14.45946    0.76694   -1.31819    1.49671   -1.01476
  14.47447    0.72692   -1.21706    1.51034   -1.01872
  14.48949    0.69113   -1.12019    1.50099   -1.04174
  14.50450    0.65906   -1.02725    1.46351   -1.07237
  14.51952    0.63028   -0.93787    1.39862   -1.09813
  14.53453    0.60442   -0.85177    1.31252   -1.10883
  14.54955    0.58119   -0.76865    1.21454   -1.09893
  14.56456    0.56032   -0.68827    1.11415   -1.06800
  14.57958    0.54159   -0.61037    1.01846   -1.01924
  14.59460    0.52483   -0.53472    0.93156   -0.95729
  14.60961    0.50987   -0.46113    0.85500   -0.88673
  14.62463    0.49659   -0.38939    0.78870   -0.81121
  14.63964    0.48490   -0.31932    0.73178   -0.73337
  14.65466    0.47471   -0.25075    0.68307   -0.65496
  14.66967    0.46596   -0.18351    0.64137   -0.57712
  14.68469    0.45864   -0.11744    0.60559   -0.50048
  14.69970    0.45272   -0.05241    0.57480   -0.42541
  14.71     0.4482     0.1173E-1  0.5482     -.3521   
  14.72973    0.44519    0.07511    0.52520   -0.28047
  14.74475    0.44369    0.13785    0.50521   -0.21058
  14.75976    0.44384    0.20005    0.48784   -0.14234
  14.77478    0.44579    0.26181    0.47273   -0.07560
  14.79     0.4497     0.3232     0.4596     -.1026E-1
  14.80481    0.45596    0.38417    0.44823    0.05382
  14.81982    0.46478    0.44475    0.43842    0.11676
  14.83484    0.47662    0.50478    0.43002    0.17871
  14.84985    0.49198    0.56396    0.42291    0.23979
  14.86487    0.51143    0.62175    0.41700    0.30011
  14.87988    0.53557    0.67731    0.41220    0.35981
  14.89490    0.56490    0.72931    0.40846    0.41899
  14.90991    0.59959    0.77584    0.40572    0.47778
  14.92492    0.63901    0.81437    0.40397    0.53629
  14.93994    0.68122    0.84198    0.40319    0.59463
  14.95496    0.72229    0.85623    0.40338    0.65290
  14.96997    0.75636    0.85654    0.40454    0.71124
  14.98499    0.77690    0.84582    0.40672    0.76973
  15.00000    0.77937    0.83079    0.40993    0.82852
# 
# 03/01/2017 at 15:53 YAMBO @ anomaly [start]
# 03/01/2017 at 15:53                 [end]
#  
# Timing   [Min/Max/Average]: 05s/05s/05s
#
# .-Input file : yambo.in
# | optics                       # [R OPT] Optics
# | bse                          # [R BSE] Bethe Salpeter Equation.
# | bsk                          # [R BSK] Bethe Salpeter Equation kernel
# | bss                          # [R BSS] Bethe Salpeter Equation solver
# | BoseTemp= 0.000000     eV    # Bosonic Temperature
# | FFTGvecs=  9939        RL    # [FFT] Plane-waves
# | X_Threads= 1                 # [OPENMP/X] Number of threads for response functions
# | DIP_Threads= 1               # [OPENMP/X] Number of threads for dipoles
# | NonPDirs= "XYZ"              # [X/BSS] Non periodic chartesian directions (X,Y,Z,XY...)
# | BSEmod= "retarded"           # [BSE] resonant/retarded/coupling
# | BSKmod= "Hartree"            # [BSE] IP/Hartree/HF/ALDA/SEX/BSfxc
# | BSSmod= "hd"                 # [BSS] (h)aydock/(d)iagonalization/(i)nversion/(t)ddft`
# | BSENGexx=  9045        RL    # [BSK] Exchange components
# | % BEnRange
# |   0.00000 | 15.00000 | eV    # [BSS] Energy range
# | %
# | % BDmRange
# |   0.10000 |  0.10000 | eV    # [BSS] Damping range
# | %
# | BEnSteps= 1000               # [BSS] Energy steps
# | % BLongDir
# | 0.1000E-4 | 0.000    | 0.000    |        # [BSS] [cc] Electric Field
# | %
# | % BSEBands
# |    1 | 200 |                 # [BSK] Bands range
# | %
# | BSHayTrs=0.1000E-2           # [BSS] Relative [o/o] Haydock treshold. Strict(>0)/Average(<0)
