#                                                           
#  ____  ____     _       ____    ____  ______      ___     
# |_  _||_  _|   / \     |_   \  /   _||_   _ \   ."   `.   
#   \ \  / /    / _ \      |   \/   |    | |_) | /  .-.  \  
#    \ \/ /    / ___ \     | |\  /| |    |  __". | |   | |  
#    _|  |_  _/ /   \ \_  _| |_\/_| |_  _| |__) |\  `-"  /  
#   |______||____| |____||_____||_____||_______/  `.___."   
#                                                           
#                                                           
#                                                           
#        Version 4.2.0 Revision 14319 Hash 8432f48          
#                   MPI+SLK+OpenMP Build                    
#                http://www.yambo-code.org                  
#
# Joint density of states @ Q(1) [q->0 direction] :0.1000E-4  0.000     0.000   
#
# - Energies      are Teter 93(XC)
# - The Green`s function is Retarded -
#
#   BSK|Identifier              :3730
#      |Dimension               :199
#      |Bands                   :1 - 200
#      |Exchange           [res]: yes
#      |Correlation        [res]: no
#      |Kernel`s coupling       : no
#      |Exchange           [cpl]: no
#      |Correlation        [cpl]: no
#      |W interaction is bare   : no
#      |ALDA kernel in R-space  : yes
#      |RL vectors    [exchange]:9045
#      |E/h energy range    [ev]:-1.000000 - -1.000000
#      |Coupling range     [o/o]: 100.0000 -  100.0000
#
#  E/ev[1]    jdos-Im[2] jdos-Re[3] jdoso-Im[4]jdoso-Re[5]jdos`-Im[6]jdos`-Re[7]
#
  0.000000   0.000000   1.167337   0.000000   1.166903
 0.1502E-1  0.1810E-4   1.167     0.1822E-4   1.167   
 0.3003E-1  0.3619E-4   1.167     0.3643E-4   1.167   
 0.4505E-1  0.5429E-4   1.167     0.5465E-4   1.167   
 0.6006E-1  0.7239E-4   1.167     0.7287E-4   1.167   
 0.7508E-1  0.9049E-4   1.167     0.9109E-4   1.167   
 0.9009E-1  0.1086E-3   1.167     0.1093E-3   1.167   
 0.1051     0.1267E-3   1.167     0.1275E-3   1.167   
 0.1201     0.1448E-3   1.167     0.1458E-3   1.167   
 0.1351     0.1629E-3   1.167     0.1640E-3   1.167   
 0.1502     0.1810E-3   1.167     0.1822E-3   1.167   
 0.1652     0.1991E-3   1.168     0.2005E-3   1.167   
 0.1802     0.2172E-3   1.168     0.2187E-3   1.167   
 0.1952     0.2354E-3   1.168     0.2369E-3   1.167   
 0.2102     0.2535E-3   1.168     0.2552E-3   1.167   
 0.2252     0.2716E-3   1.168     0.2734E-3   1.167   
 0.2402     0.2898E-3   1.168     0.2917E-3   1.167   
 0.2553     0.3079E-3   1.168     0.3099E-3   1.167   
 0.2703     0.3260E-3   1.168     0.3282E-3   1.167   
 0.2853     0.3442E-3   1.168     0.3465E-3   1.167   
 0.3003     0.3623E-3   1.168     0.3648E-3   1.167   
 0.3153     0.3805E-3   1.168     0.3830E-3   1.168   
 0.3303     0.3987E-3   1.168     0.4013E-3   1.168   
 0.3453     0.4168E-3   1.168     0.4196E-3   1.168   
 0.3604     0.4350E-3   1.168     0.4379E-3   1.168   
 0.3754     0.4532E-3   1.168     0.4562E-3   1.168   
 0.3904     0.4714E-3   1.168     0.4746E-3   1.168   
 0.4054     0.4896E-3   1.168     0.4929E-3   1.168   
 0.4204     0.5078E-3   1.168     0.5112E-3   1.168   
 0.4354     0.5260E-3   1.168     0.5296E-3   1.168   
 0.4505     0.5443E-3   1.169     0.5479E-3   1.168   
 0.4655     0.5625E-3   1.169     0.5663E-3   1.168   
 0.4805     0.5808E-3   1.169     0.5847E-3   1.168   
 0.4955     0.5990E-3   1.169     0.6031E-3   1.168   
 0.5105     0.6173E-3   1.169     0.6214E-3   1.168   
 0.5255     0.6356E-3   1.169     0.6399E-3   1.169   
 0.5405     0.6539E-3   1.169     0.6583E-3   1.169   
 0.5556     0.6722E-3   1.169     0.6767E-3   1.169   
 0.5706     0.6905E-3   1.169     0.6951E-3   1.169   
 0.5856     0.7088E-3   1.169     0.7136E-3   1.169   
 0.6006     0.7271E-3   1.170     0.7321E-3   1.169   
 0.6156     0.7455E-3   1.170     0.7505E-3   1.169   
 0.6306     0.7639E-3   1.170     0.7690E-3   1.169   
 0.6456     0.7822E-3   1.170     0.7875E-3   1.169   
 0.6607     0.8006E-3   1.170     0.8061E-3   1.170   
 0.6757     0.8190E-3   1.170     0.8246E-3   1.170   
 0.6907     0.8374E-3   1.170     0.8431E-3   1.170   
 0.7057     0.8559E-3   1.170     0.8617E-3   1.170   
 0.7207     0.8743E-3   1.170     0.8803E-3   1.170   
 0.7357     0.8928E-3   1.171     0.8989E-3   1.170   
 0.7508     0.9112E-3   1.171     0.9175E-3   1.170   
 0.7658     0.9297E-3   1.171     0.9361E-3   1.170   
 0.7808     0.9482E-3   1.171     0.9547E-3   1.171   
 0.7958     0.9668E-3   1.171     0.9734E-3   1.171   
 0.8108     0.9853E-3   1.171     0.9921E-3   1.171   
 0.8258     0.1004E-2   1.171     0.1011E-2   1.171   
 0.8408     0.1022E-2   1.172     0.1029E-2   1.171   
 0.8559     0.1041E-2   1.172     0.1048E-2   1.171   
 0.8709     0.1060E-2   1.172     0.1067E-2   1.172   
 0.8859     0.1078E-2   1.172     0.1086E-2   1.172   
 0.9009     0.1097E-2   1.172     0.1105E-2   1.172   
 0.9159     0.1116E-2   1.172     0.1123E-2   1.172   
 0.9309     0.1134E-2   1.173     0.1142E-2   1.172   
 0.9459     0.1153E-2   1.173     0.1161E-2   1.172   
 0.9610     0.1172E-2   1.173     0.1180E-2   1.173   
    0.9760     0.0012     1.1731     0.0012     1.1727
    0.9910     0.0012     1.1733     0.0012     1.1729
    1.0060     0.0012     1.1735     0.0012     1.1731
    1.0210     0.0012     1.1737     0.0013     1.1733
    1.0360     0.0013     1.1738     0.0013     1.1735
    1.0511     0.0013     1.1740     0.0013     1.1737
    1.0661     0.0013     1.1742     0.0013     1.1738
    1.0811     0.0013     1.1744     0.0013     1.1740
    1.0961     0.0013     1.1746     0.0014     1.1742
    1.1111     0.0014     1.1748     0.0014     1.1745
    1.1261     0.0014     1.1750     0.0014     1.1747
    1.1411     0.0014     1.1752     0.0014     1.1749
    1.1562     0.0014     1.1755     0.0014     1.1751
    1.1712     0.0014     1.1757     0.0014     1.1753
    1.1862     0.0015     1.1759     0.0015     1.1755
    1.2012     0.0015     1.1761     0.0015     1.1757
    1.2162     0.0015     1.1763     0.0015     1.1760
    1.2312     0.0015     1.1766     0.0015     1.1762
    1.2462     0.0015     1.1768     0.0015     1.1764
    1.2613     0.0016     1.1770     0.0016     1.1767
    1.2763     0.0016     1.1773     0.0016     1.1769
    1.2913     0.0016     1.1775     0.0016     1.1771
    1.3063     0.0016     1.1777     0.0016     1.1774
    1.3213     0.0016     1.1780     0.0016     1.1776
    1.3363     0.0016     1.1782     0.0017     1.1779
    1.3514     0.0017     1.1785     0.0017     1.1781
    1.3664     0.0017     1.1787     0.0017     1.1784
    1.3814     0.0017     1.1790     0.0017     1.1786
    1.3964     0.0017     1.1792     0.0017     1.1789
    1.4114     0.0017     1.1795     0.0018     1.1791
    1.4264     0.0018     1.1798     0.0018     1.1794
    1.4414     0.0018     1.1800     0.0018     1.1797
    1.4565     0.0018     1.1803     0.0018     1.1799
    1.4715     0.0018     1.1806     0.0018     1.1802
    1.4865     0.0018     1.1808     0.0019     1.1805
    1.5015     0.0019     1.1811     0.0019     1.1808
    1.5165     0.0019     1.1814     0.0019     1.1811
    1.5315     0.0019     1.1817     0.0019     1.1813
    1.5465     0.0019     1.1820     0.0019     1.1816
    1.5616     0.0019     1.1823     0.0020     1.1819
    1.5766     0.0020     1.1826     0.0020     1.1822
    1.5916     0.0020     1.1828     0.0020     1.1825
    1.6066     0.0020     1.1831     0.0020     1.1828
    1.6216     0.0020     1.1834     0.0020     1.1831
    1.6366     0.0020     1.1838     0.0021     1.1834
    1.6517     0.0021     1.1841     0.0021     1.1837
    1.6667     0.0021     1.1844     0.0021     1.1841
    1.6817     0.0021     1.1847     0.0021     1.1844
    1.6967     0.0021     1.1850     0.0021     1.1847
    1.7117     0.0021     1.1853     0.0022     1.1850
    1.7267     0.0022     1.1856     0.0022     1.1853
    1.7417     0.0022     1.1860     0.0022     1.1857
    1.7568     0.0022     1.1863     0.0022     1.1860
    1.7718     0.0022     1.1866     0.0022     1.1863
    1.7868     0.0022     1.1870     0.0023     1.1867
    1.8018     0.0023     1.1873     0.0023     1.1870
    1.8168     0.0023     1.1876     0.0023     1.1874
    1.8318     0.0023     1.1880     0.0023     1.1877
    1.8468     0.0023     1.1883     0.0023     1.1881
    1.8619     0.0023     1.1887     0.0024     1.1884
    1.8769     0.0024     1.1890     0.0024     1.1888
    1.8919     0.0024     1.1894     0.0024     1.1891
    1.9069     0.0024     1.1898     0.0024     1.1895
    1.9219     0.0024     1.1901     0.0024     1.1899
    1.9369     0.0024     1.1905     0.0025     1.1902
    1.9520     0.0025     1.1909     0.0025     1.1906
    1.9670     0.0025     1.1912     0.0025     1.1910
    1.9820     0.0025     1.1916     0.0025     1.1913
    1.9970     0.0025     1.1920     0.0026     1.1917
    2.0120     0.0026     1.1924     0.0026     1.1921
    2.0270     0.0026     1.1927     0.0026     1.1925
    2.0420     0.0026     1.1931     0.0026     1.1929
    2.0571     0.0026     1.1935     0.0026     1.1933
    2.0721     0.0026     1.1939     0.0027     1.1937
    2.0871     0.0027     1.1943     0.0027     1.1941
    2.1021     0.0027     1.1947     0.0027     1.1945
    2.1171     0.0027     1.1951     0.0027     1.1949
    2.1321     0.0027     1.1955     0.0027     1.1953
    2.1471     0.0027     1.1959     0.0028     1.1957
    2.1622     0.0028     1.1964     0.0028     1.1961
    2.1772     0.0028     1.1968     0.0028     1.1966
    2.1922     0.0028     1.1972     0.0028     1.1970
    2.2072     0.0028     1.1976     0.0029     1.1974
    2.2222     0.0029     1.1980     0.0029     1.1978
    2.2372     0.0029     1.1985     0.0029     1.1983
    2.2523     0.0029     1.1989     0.0029     1.1987
    2.2673     0.0029     1.1993     0.0029     1.1992
    2.2823     0.0029     1.1998     0.0030     1.1996
    2.2973     0.0030     1.2002     0.0030     1.2000
    2.3123     0.0030     1.2007     0.0030     1.2005
    2.3273     0.0030     1.2011     0.0030     1.2009
    2.3423     0.0030     1.2016     0.0031     1.2014
    2.3574     0.0031     1.2020     0.0031     1.2019
    2.3724     0.0031     1.2025     0.0031     1.2023
    2.3874     0.0031     1.2030     0.0031     1.2028
    2.4024     0.0031     1.2034     0.0031     1.2033
    2.4174     0.0031     1.2039     0.0032     1.2037
    2.4324     0.0032     1.2044     0.0032     1.2042
    2.4474     0.0032     1.2048     0.0032     1.2047
    2.4625     0.0032     1.2053     0.0032     1.2052
    2.4775     0.0032     1.2058     0.0033     1.2057
    2.4925     0.0033     1.2063     0.0033     1.2062
    2.5075     0.0033     1.2068     0.0033     1.2067
    2.5225     0.0033     1.2073     0.0033     1.2072
    2.5375     0.0033     1.2078     0.0034     1.2077
    2.5526     0.0033     1.2083     0.0034     1.2082
    2.5676     0.0034     1.2088     0.0034     1.2087
    2.5826     0.0034     1.2093     0.0034     1.2092
    2.5976     0.0034     1.2098     0.0034     1.2097
    2.6126     0.0034     1.2103     0.0035     1.2102
    2.6276     0.0035     1.2108     0.0035     1.2107
    2.6426     0.0035     1.2113     0.0035     1.2113
    2.6577     0.0035     1.2119     0.0035     1.2118
    2.6727     0.0035     1.2124     0.0036     1.2123
    2.6877     0.0036     1.2129     0.0036     1.2129
    2.7027     0.0036     1.2135     0.0036     1.2134
    2.7177     0.0036     1.2140     0.0036     1.2140
    2.7327     0.0036     1.2146     0.0037     1.2145
    2.7477     0.0037     1.2151     0.0037     1.2151
    2.7628     0.0037     1.2157     0.0037     1.2156
    2.7778     0.0037     1.2162     0.0037     1.2162
    2.7928     0.0037     1.2168     0.0038     1.2167
    2.8078     0.0037     1.2173     0.0038     1.2173
    2.8228     0.0038     1.2179     0.0038     1.2179
    2.8378     0.0038     1.2185     0.0038     1.2184
    2.8529     0.0038     1.2190     0.0039     1.2190
    2.8679     0.0038     1.2196     0.0039     1.2196
    2.8829     0.0039     1.2202     0.0039     1.2202
    2.8979     0.0039     1.2208     0.0039     1.2208
    2.9129     0.0039     1.2214     0.0040     1.2214
    2.9279     0.0039     1.2219     0.0040     1.2220
    2.9429     0.0040     1.2225     0.0040     1.2226
    2.9580     0.0040     1.2231     0.0040     1.2232
    2.9730     0.0040     1.2237     0.0041     1.2238
    2.9880     0.0040     1.2243     0.0041     1.2244
    3.0030     0.0041     1.2250     0.0041     1.2250
    3.0180     0.0041     1.2256     0.0041     1.2256
    3.0330     0.0041     1.2262     0.0042     1.2262
    3.0480     0.0041     1.2268     0.0042     1.2269
    3.0631     0.0042     1.2274     0.0042     1.2275
    3.0781     0.0042     1.2281     0.0042     1.2281
    3.0931     0.0042     1.2287     0.0043     1.2288
    3.1081     0.0043     1.2293     0.0043     1.2294
    3.1231     0.0043     1.2300     0.0043     1.2301
    3.1381     0.0043     1.2306     0.0044     1.2307
    3.1532     0.0043     1.2313     0.0044     1.2314
    3.1682     0.0044     1.2319     0.0044     1.2320
    3.1832     0.0044     1.2326     0.0044     1.2327
    3.1982     0.0044     1.2332     0.0045     1.2334
    3.2132     0.0044     1.2339     0.0045     1.2340
    3.2282     0.0045     1.2346     0.0045     1.2347
    3.2432     0.0045     1.2352     0.0045     1.2354
    3.2583     0.0045     1.2359     0.0046     1.2361
    3.2733     0.0045     1.2366     0.0046     1.2368
    3.2883     0.0046     1.2373     0.0046     1.2375
    3.3033     0.0046     1.2380     0.0047     1.2382
    3.3183     0.0046     1.2387     0.0047     1.2389
    3.3333     0.0047     1.2394     0.0047     1.2396
    3.3483     0.0047     1.2401     0.0047     1.2403
    3.3634     0.0047     1.2408     0.0048     1.2410
    3.3784     0.0047     1.2415     0.0048     1.2417
    3.3934     0.0048     1.2422     0.0048     1.2424
    3.4084     0.0048     1.2429     0.0049     1.2431
    3.4234     0.0048     1.2436     0.0049     1.2439
    3.4384     0.0049     1.2443     0.0049     1.2446
    3.4535     0.0049     1.2451     0.0049     1.2454
    3.4685     0.0049     1.2458     0.0050     1.2461
    3.4835     0.0049     1.2465     0.0050     1.2468
    3.4985     0.0050     1.2473     0.0050     1.2476
    3.5135     0.0050     1.2480     0.0051     1.2484
    3.5285     0.0050     1.2488     0.0051     1.2491
    3.5435     0.0051     1.2495     0.0051     1.2499
    3.5586     0.0051     1.2503     0.0051     1.2506
    3.5736     0.0051     1.2511     0.0052     1.2514
    3.5886     0.0051     1.2518     0.0052     1.2522
    3.6036     0.0052     1.2526     0.0052     1.2530
    3.6186     0.0052     1.2534     0.0053     1.2538
    3.6336     0.0052     1.2542     0.0053     1.2546
    3.6486     0.0053     1.2550     0.0053     1.2554
    3.6637     0.0053     1.2558     0.0054     1.2562
    3.6787     0.0053     1.2565     0.0054     1.2570
    3.6937     0.0053     1.2573     0.0054     1.2578
    3.7087     0.0054     1.2582     0.0055     1.2586
    3.7237     0.0054     1.2590     0.0055     1.2594
    3.7387     0.0054     1.2598     0.0055     1.2602
    3.7538     0.0055     1.2606     0.0055     1.2611
    3.7688     0.0055     1.2614     0.0056     1.2619
    3.7838     0.0055     1.2622     0.0056     1.2627
    3.7988     0.0056     1.2631     0.0056     1.2636
    3.8138     0.0056     1.2639     0.0057     1.2644
    3.8288     0.0056     1.2648     0.0057     1.2653
    3.8438     0.0057     1.2656     0.0057     1.2662
    3.8589     0.0057     1.2665     0.0058     1.2670
    3.8739     0.0057     1.2673     0.0058     1.2679
    3.8889     0.0058     1.2682     0.0058     1.2688
    3.9039     0.0058     1.2690     0.0059     1.2696
    3.9189     0.0058     1.2699     0.0059     1.2705
    3.9339     0.0059     1.2708     0.0059     1.2714
    3.9489     0.0059     1.2717     0.0060     1.2723
    3.9640     0.0059     1.2726     0.0060     1.2732
    3.9790     0.0059     1.2734     0.0060     1.2741
    3.9940     0.0060     1.2743     0.0061     1.2750
    4.0090     0.0060     1.2752     0.0061     1.2759
    4.0240     0.0060     1.2761     0.0061     1.2768
    4.0390     0.0061     1.2771     0.0062     1.2778
    4.0541     0.0061     1.2780     0.0062     1.2787
    4.0691     0.0062     1.2789     0.0062     1.2796
    4.0841     0.0062     1.2798     0.0063     1.2806
    4.0991     0.0062     1.2807     0.0063     1.2815
    4.1141     0.0063     1.2817     0.0064     1.2825
    4.1291     0.0063     1.2826     0.0064     1.2834
    4.1441     0.0063     1.2836     0.0064     1.2844
    4.1592     0.0064     1.2845     0.0065     1.2854
    4.1742     0.0064     1.2855     0.0065     1.2863
    4.1892     0.0064     1.2864     0.0065     1.2873
    4.2042     0.0065     1.2874     0.0066     1.2883
    4.2192     0.0065     1.2884     0.0066     1.2893
    4.2342     0.0065     1.2894     0.0066     1.2903
    4.2492     0.0066     1.2903     0.0067     1.2913
    4.2643     0.0066     1.2913     0.0067     1.2923
    4.2793     0.0066     1.2923     0.0068     1.2933
    4.2943     0.0067     1.2933     0.0068     1.2943
    4.3093     0.0067     1.2943     0.0068     1.2953
    4.3243     0.0068     1.2953     0.0069     1.2964
    4.3393     0.0068     1.2964     0.0069     1.2974
    4.3544     0.0068     1.2974     0.0069     1.2984
    4.3694     0.0069     1.2984     0.0070     1.2995
    4.3844     0.0069     1.2994     0.0070     1.3005
    4.3994     0.0069     1.3005     0.0071     1.3016
    4.4144     0.0070     1.3015     0.0071     1.3026
    4.4294     0.0070     1.3026     0.0071     1.3037
    4.4444     0.0071     1.3036     0.0072     1.3048
    4.4595     0.0071     1.3047     0.0072     1.3059
    4.4745     0.0071     1.3058     0.0073     1.3070
    4.4895     0.0072     1.3068     0.0073     1.3081
    4.5045     0.0072     1.3079     0.0073     1.3091
    4.5195     0.0072     1.3090     0.0074     1.3103
    4.5345     0.0073     1.3101     0.0074     1.3114
    4.5495     0.0073     1.3112     0.0075     1.3125
    4.5646     0.0074     1.3123     0.0075     1.3136
    4.5796     0.0074     1.3134     0.0076     1.3147
    4.5946     0.0075     1.3145     0.0076     1.3159
    4.6096     0.0075     1.3156     0.0076     1.3170
    4.6246     0.0075     1.3168     0.0077     1.3182
    4.6396     0.0076     1.3179     0.0077     1.3193
    4.6547     0.0076     1.3190     0.0078     1.3205
    4.6697     0.0077     1.3202     0.0078     1.3217
    4.6847     0.0077     1.3213     0.0079     1.3228
    4.6997     0.0077     1.3225     0.0079     1.3240
    4.7147     0.0078     1.3237     0.0079     1.3252
    4.7297     0.0078     1.3248     0.0080     1.3264
    4.7447     0.0079     1.3260     0.0080     1.3276
    4.7598     0.0079     1.3272     0.0081     1.3288
    4.7748     0.0080     1.3284     0.0081     1.3300
    4.7898     0.0080     1.3296     0.0082     1.3313
    4.8048     0.0080     1.3308     0.0082     1.3325
    4.8198     0.0081     1.3320     0.0083     1.3337
    4.8348     0.0081     1.3332     0.0083     1.3350
    4.8499     0.0082     1.3344     0.0084     1.3362
    4.8649     0.0082     1.3357     0.0084     1.3375
    4.8799     0.0083     1.3369     0.0085     1.3387
    4.8949     0.0083     1.3381     0.0085     1.3400
    4.9099     0.0084     1.3394     0.0086     1.3413
    4.9249     0.0084     1.3407     0.0086     1.3426
    4.9399     0.0085     1.3419     0.0087     1.3439
    4.9550     0.0085     1.3432     0.0087     1.3452
    4.9700     0.0085     1.3445     0.0088     1.3465
    4.9850     0.0086     1.3458     0.0088     1.3478
    5.0000     0.0086     1.3470     0.0089     1.3491
    5.0150     0.0087     1.3484     0.0089     1.3505
    5.0300     0.0087     1.3497     0.0090     1.3518
    5.0450     0.0088     1.3510     0.0090     1.3532
    5.0601     0.0088     1.3523     0.0091     1.3545
    5.0751     0.0089     1.3536     0.0091     1.3559
    5.0901     0.0089     1.3550     0.0092     1.3572
    5.1051     0.0090     1.3563     0.0092     1.3586
    5.1201     0.0090     1.3577     0.0093     1.3600
    5.1351     0.0091     1.3590     0.0093     1.3614
    5.1502     0.0091     1.3604     0.0094     1.3628
    5.1652     0.0092     1.3618     0.0094     1.3642
    5.1802     0.0092     1.3631     0.0095     1.3656
    5.1952     0.0093     1.3645     0.0095     1.3671
    5.2102     0.0093     1.3659     0.0096     1.3685
    5.2252     0.0094     1.3673     0.0097     1.3700
    5.2402     0.0094     1.3687     0.0097     1.3714
    5.2553     0.0095     1.3702     0.0098     1.3729
    5.2703     0.0096     1.3716     0.0098     1.3743
    5.2853     0.0096     1.3730     0.0099     1.3758
    5.3003     0.0097     1.3745     0.0099     1.3773
    5.3153     0.0097     1.3759     0.0100     1.3788
    5.3303     0.0098     1.3774     0.0101     1.3803
    5.3453     0.0098     1.3789     0.0101     1.3818
    5.3604     0.0099     1.3803     0.0102     1.3834
    5.3754     0.0099     1.3818     0.0102     1.3849
    5.3904     0.0100     1.3833     0.0103     1.3864
   5.40541    0.01005    1.38484    0.01037    1.38798
   5.42042    0.01011    1.38635    0.01043    1.38954
   5.43544    0.01017    1.38787    0.01050    1.39111
   5.45045    0.01023    1.38940    0.01056    1.39269
   5.46547    0.01028    1.39094    0.01063    1.39428
   5.48048    0.01034    1.39249    0.01069    1.39588
   5.49550    0.01040    1.39404    0.01076    1.39749
   5.51051    0.01046    1.39561    0.01082    1.39911
   5.52553    0.01052    1.39718    0.01089    1.40073
   5.54054    0.01058    1.39877    0.01095    1.40237
   5.55556    0.01065    1.40036    0.01102    1.40402
   5.57057    0.01071    1.40196    0.01109    1.40568
   5.58559    0.01077    1.40357    0.01116    1.40735
   5.60060    0.01083    1.40519    0.01123    1.40903
   5.61562    0.01090    1.40682    0.01130    1.41072
   5.63063    0.01096    1.40846    0.01137    1.41242
   5.64565    0.01102    1.41011    0.01144    1.41413
   5.66066    0.01109    1.41177    0.01151    1.41585
   5.67568    0.01115    1.41344    0.01158    1.41758
   5.69069    0.01122    1.41512    0.01166    1.41933
   5.70571    0.01129    1.41681    0.01173    1.42108
   5.72072    0.01135    1.41851    0.01181    1.42285
   5.73574    0.01142    1.42022    0.01188    1.42462
   5.75075    0.01149    1.42193    0.01196    1.42641
   5.76577    0.01155    1.42366    0.01203    1.42821
   5.78078    0.01162    1.42540    0.01211    1.43002
   5.79580    0.01169    1.42715    0.01219    1.43184
   5.81081    0.01176    1.42891    0.01227    1.43368
   5.82583    0.01183    1.43068    0.01235    1.43552
   5.84084    0.01190    1.43246    0.01243    1.43738
   5.85586    0.01198    1.43425    0.01251    1.43925
   5.87087    0.01205    1.43605    0.01259    1.44114
   5.88589    0.01212    1.43787    0.01267    1.44303
   5.90090    0.01219    1.43969    0.01276    1.44494
   5.91592    0.01227    1.44153    0.01284    1.44686
   5.93093    0.01234    1.44337    0.01293    1.44879
   5.94595    0.01242    1.44523    0.01301    1.45074
   5.96096    0.01249    1.44710    0.01310    1.45269
   5.97598    0.01257    1.44898    0.01319    1.45467
   5.99099    0.01265    1.45087    0.01328    1.45665
   6.00601    0.01273    1.45278    0.01337    1.45865
   6.02102    0.01281    1.45469    0.01346    1.46066
   6.03604    0.01288    1.45662    0.01355    1.46269
   6.05105    0.01296    1.45856    0.01365    1.46473
   6.06607    0.01305    1.46051    0.01374    1.46678
   6.08108    0.01313    1.46247    0.01384    1.46885
   6.09610    0.01321    1.46445    0.01393    1.47093
   6.11111    0.01329    1.46643    0.01403    1.47303
   6.12613    0.01338    1.46844    0.01413    1.47514
   6.14114    0.01346    1.47045    0.01423    1.47727
   6.15616    0.01354    1.47247    0.01433    1.47941
   6.17117    0.01363    1.47451    0.01443    1.48156
   6.18619    0.01372    1.47656    0.01454    1.48374
   6.20120    0.01380    1.47863    0.01464    1.48592
   6.21622    0.01389    1.48071    0.01475    1.48813
   6.23123    0.01398    1.48280    0.01485    1.49035
   6.24625    0.01407    1.48490    0.01496    1.49258
   6.26126    0.01416    1.48702    0.01507    1.49483
   6.27628    0.01425    1.48915    0.01518    1.49710
   6.29129    0.01435    1.49130    0.01530    1.49939
   6.30631    0.01444    1.49345    0.01541    1.50169
   6.32132    0.01454    1.49563    0.01553    1.50401
   6.33634    0.01463    1.49781    0.01565    1.50634
   6.35135    0.01473    1.50002    0.01577    1.50870
   6.36637    0.01482    1.50223    0.01589    1.51107
   6.38138    0.01492    1.50446    0.01601    1.51346
   6.39640    0.01502    1.50671    0.01613    1.51587
   6.41141    0.01512    1.50897    0.01626    1.51830
   6.42643    0.01522    1.51125    0.01639    1.52075
   6.44144    0.01533    1.51354    0.01652    1.52321
   6.45646    0.01543    1.51584    0.01665    1.52570
   6.47147    0.01553    1.51817    0.01678    1.52820
   6.48649    0.01564    1.52051    0.01692    1.53073
   6.50150    0.01574    1.52286    0.01706    1.53327
   6.51652    0.01585    1.52523    0.01720    1.53584
   6.53153    0.01596    1.52761    0.01734    1.53843
   6.54655    0.01607    1.53002    0.01748    1.54104
   6.56156    0.01618    1.53243    0.01763    1.54367
   6.57658    0.01629    1.53487    0.01778    1.54632
   6.59159    0.01641    1.53732    0.01793    1.54900
   6.60661    0.01652    1.53979    0.01808    1.55169
   6.62162    0.01664    1.54228    0.01824    1.55441
   6.63664    0.01676    1.54478    0.01840    1.55716
   6.65165    0.01687    1.54731    0.01856    1.55993
   6.66667    0.01699    1.54984    0.01873    1.56272
   6.68168    0.01712    1.55240    0.01890    1.56554
   6.69670    0.01724    1.55498    0.01907    1.56838
   6.71171    0.01736    1.55757    0.01924    1.57125
   6.72673    0.01749    1.56019    0.01942    1.57415
   6.74174    0.01761    1.56282    0.01960    1.57707
   6.75676    0.01774    1.56547    0.01979    1.58002
   6.77177    0.01787    1.56814    0.01998    1.58299
   6.78679    0.01800    1.57083    0.02017    1.58600
   6.80180    0.01814    1.57354    0.02037    1.58903
   6.81682    0.01827    1.57627    0.02057    1.59210
   6.83183    0.01841    1.57902    0.02077    1.59519
   6.84685    0.01855    1.58179    0.02098    1.59831
   6.86186    0.01869    1.58458    0.02119    1.60147
   6.87688    0.01883    1.58739    0.02141    1.60466
   6.89189    0.01897    1.59023    0.02164    1.60788
   6.90691    0.01912    1.59308    0.02187    1.61113
   6.92192    0.01926    1.59596    0.02210    1.61442
   6.93694    0.01941    1.59886    0.02234    1.61774
   6.95195    0.01956    1.60178    0.02259    1.62110
   6.96697    0.01971    1.60472    0.02284    1.62450
   6.98198    0.01987    1.60769    0.02310    1.62793
   6.99700    0.02002    1.61068    0.02337    1.63140
   7.01201    0.02018    1.61369    0.02364    1.63492
   7.02703    0.02034    1.61673    0.02393    1.63847
   7.04204    0.02051    1.61980    0.02421    1.64207
   7.05706    0.02067    1.62288    0.02451    1.64571
   7.07207    0.02084    1.62599    0.02482    1.64939
   7.08709    0.02101    1.62913    0.02514    1.65312
   7.10210    0.02118    1.63229    0.02546    1.65689
   7.11712    0.02136    1.63548    0.02580    1.66072
   7.13213    0.02153    1.63869    0.02615    1.66459
   7.14715    0.02171    1.64194    0.02651    1.66852
   7.16216    0.02189    1.64520    0.02688    1.67250
   7.17718    0.02208    1.64850    0.02726    1.67653
   7.19219    0.02227    1.65182    0.02766    1.68062
   7.20721    0.02246    1.65517    0.02808    1.68477
   7.22222    0.02265    1.65855    0.02851    1.68898
   7.23724    0.02284    1.66196    0.02896    1.69325
   7.25225    0.02304    1.66540    0.02942    1.69760
   7.26727    0.02325    1.66887    0.02991    1.70200
   7.28228    0.02345    1.67237    0.03041    1.70648
   7.29730    0.02366    1.67590    0.03094    1.71104
   7.31231    0.02387    1.67946    0.03149    1.71566
   7.32733    0.02409    1.68305    0.03207    1.72038
   7.34234    0.02430    1.68667    0.03268    1.72517
   7.35736    0.02453    1.69033    0.03332    1.73005
   7.37237    0.02475    1.69402    0.03399    1.73502
   7.38739    0.02498    1.69775    0.03469    1.74009
   7.40240    0.02521    1.70151    0.03544    1.74526
   7.41742    0.02545    1.70530    0.03623    1.75054
   7.43243    0.02569    1.70913    0.03706    1.75593
   7.44745    0.02594    1.71300    0.03795    1.76144
   7.46246    0.02619    1.71690    0.03889    1.76707
   7.47748    0.02644    1.72084    0.03990    1.77283
   7.49249    0.02670    1.72482    0.04097    1.77874
   7.50751    0.02696    1.72884    0.04212    1.78478
   7.52252    0.02723    1.73290    0.04336    1.79099
   7.53754    0.02751    1.73700    0.04468    1.79737
   7.55255    0.02778    1.74114    0.04612    1.80392
   7.56757    0.02807    1.74532    0.04767    1.81066
   7.58258    0.02836    1.74954    0.04936    1.81761
   7.59760    0.02865    1.75381    0.05119    1.82478
   7.61261    0.02895    1.75812    0.05320    1.83217
   7.62763    0.02926    1.76248    0.05541    1.83982
   7.64264    0.02957    1.76688    0.05783    1.84774
   7.65766    0.02989    1.77133    0.06051    1.85594
   7.67267    0.03021    1.77582    0.06349    1.86446
   7.68769    0.03055    1.78037    0.06682    1.87332
   7.70270    0.03089    1.78497    0.07054    1.88254
   7.71772    0.03123    1.78961    0.07473    1.89214
   7.73273    0.03159    1.79431    0.07948    1.90215
   7.74775    0.03195    1.79906    0.08488    1.91260
   7.76276    0.03232    1.80387    0.09107    1.92350
   7.77778    0.03270    1.80873    0.09819    1.93488
   7.79279    0.03309    1.81365    0.10643    1.94673
   7.80781    0.03348    1.81863    0.11604    1.95902
   7.82282    0.03389    1.82367    0.12730    1.97171
   7.83784    0.03430    1.82876    0.14056    1.98468
   7.85285    0.03473    1.83392    0.15628    1.99771
   7.86787    0.03517    1.83914    0.17495    2.01046
   7.88288    0.03561    1.84443    0.19716    2.02235
   7.89790    0.03607    1.84979    0.22353    2.03250
   7.91291    0.03654    1.85521    0.25458    2.03955
   7.92793    0.03703    1.86071    0.29052    2.04158
   7.94294    0.03752    1.86627    0.33083    2.03604
   7.95796    0.03803    1.87191    0.37367    2.01997
   7.97297    0.03856    1.87763    0.41530    1.99076
   7.98799    0.03910    1.88343    0.44997    1.94757
   8.00300    0.03965    1.88930    0.47112    1.89293
   8.01802    0.04023    1.89526    0.47392    1.83322
   8.03303    0.04082    1.90131    0.45781    1.77683
   8.04805    0.04142    1.90744    0.42679    1.73086
   8.06306    0.04205    1.91366    0.38726    1.69879
   8.07808    0.04270    1.91998    0.34534    1.68042
   8.09309    0.04336    1.92639    0.30527    1.67342
   8.10811    0.04406    1.93290    0.26929    1.67484
   8.12312    0.04477    1.93951    0.23816    1.68197
   8.13814    0.04551    1.94623    0.21182    1.69275
   8.15315    0.04627    1.95306    0.18979    1.70571
   8.16817    0.04707    1.96000    0.17146    1.71986
   8.18318    0.04789    1.96706    0.15624    1.73457
   8.19820    0.04875    1.97424    0.14359    1.74945
   8.21321    0.04964    1.98155    0.13308    1.76426
   8.22823    0.05056    1.98899    0.12431    1.77887
   8.24324    0.05153    1.99656    0.11700    1.79322
   8.25826    0.05253    2.00427    0.11090    1.80728
   8.27327    0.05358    2.01214    0.10580    1.82105
   8.28829    0.05468    2.02015    0.10156    1.83455
   8.30330    0.05583    2.02833    0.09804    1.84780
   8.31832    0.05704    2.03667    0.09514    1.86083
   8.33333    0.05830    2.04518    0.09278    1.87368
   8.34835    0.05963    2.05388    0.09089    1.88637
   8.36336    0.06103    2.06277    0.08941    1.89894
   8.37838    0.06250    2.07186    0.08831    1.91142
   8.39339    0.06406    2.08116    0.08755    1.92383
   8.40841    0.06571    2.09068    0.08710    1.93622
   8.42342    0.06746    2.10044    0.08694    1.94861
   8.43844    0.06932    2.11043    0.08706    1.96102
   8.45345    0.07131    2.12069    0.08745    1.97350
   8.46847    0.07343    2.13122    0.08810    1.98605
   8.48348    0.07569    2.14205    0.08902    1.99872
   8.49850    0.07813    2.15318    0.09021    2.01153
   8.51351    0.08075    2.16463    0.09167    2.02450
   8.52853    0.08359    2.17643    0.09343    2.03768
   8.54354    0.08666    2.18860    0.09550    2.05108
   8.55856    0.09000    2.20116    0.09790    2.06474
   8.57357    0.09366    2.21415    0.10069    2.07869
   8.58859    0.09766    2.22758    0.10388    2.09296
  8.603603   0.102076   2.241483   0.107543   2.107594
  8.618619   0.106960   2.255899   0.111736   2.122617
  8.633635   0.112393   2.270850   0.116540   2.138069
  8.648649   0.118468   2.286378   0.122053   2.153980
  8.663664   0.125301   2.302511   0.128396   2.170382
  8.678679   0.133030   2.319271   0.135720   2.187293
  8.693694   0.141827   2.336680   0.144210   2.204728
  8.708709   0.151905   2.354736   0.154098   2.222674
  8.723724   0.163524   2.373422   0.165669   2.241082
  8.738739   0.177006   2.392667   0.179275   2.259859
  8.753754   0.192742   2.412336   0.195344   2.278807
  8.768769   0.211207   2.432183   0.214383   2.297601
  8.783784   0.232954   2.451801   0.236976   2.315701
  8.798799   0.258595   2.470519   0.263737   2.332256
  8.813814   0.288737   2.487305   0.295206   2.345983
  8.828829   0.323830   2.500620   0.331636   2.355011
  8.843843   0.363878   2.508309   0.372598   2.356854
  8.858859   0.407951   2.507640   0.416406   2.348577
  8.873874   0.453559   2.495675   0.459505   2.327505
  8.888889   0.496170   2.470314   0.496309   2.292575
  8.903905   0.529517   2.431863   0.520243   2.245995
  8.918920   0.547384   2.384413   0.526215   2.193837
  8.933934   0.546390   2.335482   0.513222   2.144462
  8.948950   0.527864   2.293392   0.484926   2.105216
  8.963964   0.497112   2.264036   0.447655   2.079952
  8.978979   0.460765   2.249417   0.407638   2.068781
  8.993995   0.424365   2.248362   0.369318   2.069500
  9.009009   0.391419   2.258183   0.335110   2.079173
  9.024024   0.363607   2.275998   0.305901   2.095090
  9.039040   0.341404   2.299386   0.281683   2.115144
  9.054054   0.324649   2.326568   0.262021   2.137839
  9.069069   0.312937   2.356321   0.246337   2.162171
  9.084085   0.305825   2.387862   0.234056   2.187511
  9.099099   0.302941   2.420699   0.224664   2.213480
  9.114114   0.304037   2.454530   0.217734   2.239862
  9.129129   0.308997   2.489170   0.212921   2.266556
  9.144144   0.317853   2.524473   0.209956   2.293525
  9.159160   0.330782   2.560283   0.208636   2.320788
  9.174174   0.348104   2.596357   0.208814   2.348386
  9.189190   0.370276   2.632304   0.210389   2.376383
  9.204205   0.397861   2.667495   0.213306   2.404855
  9.219219   0.431451   2.700911   0.217546   2.433891
  9.234235   0.471499   2.731026   0.223129   2.463585
  9.249249   0.518016   2.755689   0.230106   2.494037
  9.264264   0.570063   2.772195   0.238572   2.525344
  9.279280   0.625123   2.777711   0.248658   2.557616
  9.294294   0.678682   2.770379   0.260545   2.590951
  9.309309   0.724702   2.750925   0.274466   2.625455
  9.324325   0.757577   2.723882   0.290719   2.661213
  9.339339   0.774952   2.696950   0.309680   2.698293
  9.354354   0.779387   2.678133   0.331822   2.736735
  9.369370   0.777326   2.672552   0.357729   2.776506
  9.384384   0.776372   2.681136   0.388130   2.817477
  9.399399   0.783010   2.701416   0.423911   2.859377
  9.414415   0.801743   2.728976   0.466140   2.901672
  9.429430   0.835178   2.758450   0.516048   2.943444
  9.444445   0.884258   2.783849   0.574985   2.983209
  9.459460   0.948041   2.798549   0.644237   3.018660
  9.474475   1.022933   2.795565   0.724656   3.046403
  9.489490   1.101644   2.768725   0.815970   3.061780
  9.504505   1.172884   2.715187   0.915706   3.059098
  9.519520   1.223308   2.638641   1.017929   3.032780
  9.534534   1.242351   2.550707   1.112645   2.979797
  9.549550   1.227556   2.467916   1.187288   2.902969
  9.564565   1.186056   2.405181   1.231179   2.812897
  9.579579   1.130828   2.370535   1.241080   2.725675
  9.594595   1.075124   2.364350   1.223464   2.656648
  9.609610   1.028969   2.381998   1.191429   2.614594
  9.624624   0.998522   2.416909   1.159074   2.600192
  9.639640   0.987032   2.462439   1.137441   2.608245
  9.654655   0.996019   2.512439   1.133327   2.630775
  9.669669   1.026032   2.561021   1.149741   2.659082
  9.684686   1.076792   2.602063   1.186604   2.684735
  9.699700   1.146697   2.628755   1.241091   2.700174
  9.714715   1.231856   2.633735   1.307935   2.699611
  9.729731   1.324936   2.610124   1.380363   2.680103
  9.744745   1.414799   2.553759   1.452020   2.641821
  9.759760   1.487976   2.465815   1.518599   2.586536
  9.774776   1.532130   2.354031   1.577309   2.515287
  9.789790   1.539767   2.231122   1.624305   2.427967
  9.804805   1.509817   2.111235   1.653188   2.325983
  9.819820   1.446712   2.006824   1.657179   2.215360
  9.834835   1.358650   1.927097   1.633665   2.106250
  9.849850   1.256008   1.877186   1.586411   2.008428
  9.864865   1.149496   1.857706   1.522979   1.926781
  9.879880   1.048049   1.865368   1.449781   1.861014
  9.894895   0.957565   1.894680   1.369425   1.809180
  9.909910   0.880911   1.939801   1.282116   1.771272
  9.924925   0.818775   1.995705   1.188929   1.749712
  9.939939   0.770634   2.058566   1.093567   1.747020
  9.954955   0.735500   2.125689   1.001333   1.763510
  9.969971   0.712356   2.195225   0.917039   1.796918
  9.984985   0.700391   2.265905   0.843697   1.843552
  10.00000    0.69909    2.33675    0.78248    1.89960
  10.01502    0.70825    2.40683    0.73329    1.96189
  10.03003    0.72791    2.47507    0.69539    2.02809
  10.04505    0.75821    2.54000    0.66785    2.09662
  10.06006    0.79910    2.59960    0.64986    2.16646
  10.07508    0.84994    2.65122    0.64079    2.23699
  10.09009    0.90880    2.69191    0.64030    2.30778
  10.10511    0.97200    2.71915    0.64834    2.37849
  10.12012    1.03419    2.73239    0.66519    2.44868
  10.13514    1.08990    2.73437    0.69138    2.51773
  10.15015    1.13619    2.73102    0.72771    2.58460
  10.16516    1.17473    2.72888    0.77512    2.64763
  10.18018    1.21123    2.73154    0.83443    2.70429
  10.19520    1.25240    2.73757    0.90590    2.75088
  10.21021    1.30244    2.74092    0.98836    2.78244
  10.22523    1.36059    2.73327    1.07802    2.79326
  10.24024    1.42017    2.70736    1.16732    2.77836
  10.25526    1.46963    2.66087    1.24475    2.73641
  10.27027    1.49642    2.59953    1.29732    2.67287
  10.28529    1.49296    2.53674    1.31573    2.60089
  10.30030    1.46098    2.48852    1.29930    2.53750
  10.31532    1.41062    2.46680    1.25653    2.49700
  10.33033    1.35538    2.47595    1.20070    2.48639
  10.34535    1.30714    2.51384    1.14445    2.50541
  10.36036    1.27409    2.57497    1.09678    2.54956
  10.37538    1.26100    2.65317    1.06286    2.61315
  10.39039    1.27051    2.74283    1.04511    2.69102
  10.40541    1.30431    2.83915    1.04455    2.77917
  10.42042    1.36389    2.93773    1.06165    2.87472
  10.43544    1.45092    3.03393    1.09702    2.97552
  10.45045    1.56706    3.12220    1.15166    3.07983
  10.46547    1.71341    3.19534    1.22718    3.18589
  10.48048    1.88930    3.24421    1.32582    3.29145
  10.49550    2.09056    3.25818    1.45040    3.39334
  10.51051    2.30796    3.22707    1.60403    3.48683
  10.52553    2.52712    3.14461    1.78949    3.56502
  10.54054    2.73146    3.01173    2.00805    3.61838
  10.55556    2.90752    2.83671    2.25771    3.63488
  10.57057    3.04878    2.63078    2.53117    3.60147
  10.58559    3.15430    2.40226    2.81477    3.50728
  10.60060    3.22324    2.15449    3.09008    3.34743
  10.61562    3.25005    1.88934    3.33827    3.12485
  10.63063    3.22479    1.61334    3.54427    2.84796
  10.64565    3.13848    1.34164    3.69673    2.52651
  10.66066    2.99044    1.09647    3.78465    2.17060
  10.67568    2.79272    0.89990    3.79560    1.79464
  10.69069    2.56758    0.76524    3.72011    1.42164
  10.70571    2.33977    0.69295    3.55980    1.08173
  10.72072    2.12904    0.67290    3.33220    0.80310
  10.73574    1.94688    0.68973    3.06684    0.60153
  10.75075    1.79679    0.72751    2.79490    0.47605
  10.76577    1.67604    0.77250    2.53988    0.41266
  10.78078    1.57746    0.81479    2.31344    0.39174
  10.79580    1.49135    0.84961    2.11638    0.39505
  10.81081    1.40826    0.87793    1.94228    0.41022
  10.82583    1.32215    0.90534    1.78255    0.43240
  10.84084    1.23222    0.93878    1.63101    0.46278
  10.85586    1.14185    0.98308    1.48621    0.50476
  10.87087    1.05587    1.03954    1.35030    0.56030
  10.88589    0.97819    1.10669    1.22649    0.62864
  10.90090    0.91098    1.18184    1.11700    0.70706
  10.91592    0.85485    1.26229    1.02249    0.79227
  10.93093    0.80950    1.34591    0.94237    0.88133
  10.94595    0.77420    1.43119    0.87537    0.97202
  10.96096    0.74816    1.51720    0.82002    1.06291
  10.97598    0.73070    1.60341    0.77489    1.15312
  10.99099    0.72133    1.68954    0.73873    1.24220
  11.00601    0.71981    1.77547    0.71052    1.33002
  11.02102    0.72613    1.86112    0.68947    1.41660
  11.03604    0.74055    1.94635    0.67502    1.50209
  11.05105    0.76355    2.03086    0.66681    1.58669
  11.06607    0.79586    2.11411    0.66470    1.67063
  11.08108    0.83829    2.19509    0.66873    1.75413
  11.09610    0.89163    2.27224    0.67912    1.83735
  11.11111    0.95631    2.34327    0.69635    1.92039
  11.12613    1.03185    2.40525    0.72107    2.00319
  11.14114    1.11629    2.45508    0.75421    2.08547
  11.15616    1.20586    2.49060    0.79689    2.16659
  11.17117    1.29570    2.51204    0.85047    2.24539
  11.18619    1.38198    2.52282    0.91631    2.31994
  11.20120    1.46442    2.52812    0.99558    2.38727
  11.21622    1.54698    2.53156    1.08854    2.44315
  11.23123    1.63551    2.53211    1.19369    2.48216
  11.24625    1.73373    2.52392    1.30643    2.49855
  11.26126    1.84010    2.49897    1.41824    2.48831
  11.27628    1.94741    2.45149    1.51753    2.45236
  11.29129    2.04588    2.38177    1.59341    2.39905
  11.30631    2.12867    2.29640    1.64134    2.34294
  11.32132    2.19593    2.20362    1.66662    2.29918
  11.33634    2.25326    2.10688    1.68238    2.27681
  11.35135    2.30530    2.00221    1.70400    2.27583
  11.36637    2.34968    1.88206    1.74400    2.28847
  11.38138    2.37631    1.74242    1.80933    2.30217
  11.39640    2.37258    1.58816    1.90053    2.30232
  11.41141    2.33088    1.43230    2.01111    2.27477
  11.42643    2.25263    1.28986    2.12764    2.20911
  11.44144    2.14617    1.17156    2.23179    2.10261
  11.45646    2.02152    1.08198    2.30537    1.96286
  11.47147    1.88696    1.02199    2.33691    1.80605
  11.48649    1.74927    0.99146    2.32519    1.65105
  11.50150    1.61528    0.98953    2.27790    1.51320
  11.51652    1.49202    1.01342    2.20739    1.40128
  11.53153    1.38535    1.05797    2.12709    1.31735
  11.54655    1.29886    1.11645    2.04895    1.25736
  11.56156    1.23370    1.18176    1.98074    1.21214
  11.57658    1.18882    1.24713    1.92359    1.17009
  11.59159    1.16123    1.30645    1.87119    1.12155
  11.60661    1.14587    1.35481    1.81228    1.06333
  11.62162    1.13570    1.38953    1.73594    1.00077
  11.63664    1.12269    1.41155    1.63734    0.94544
  11.65165    1.10023    1.42614    1.52003    0.90929
  11.66667    1.06583    1.44138    1.39345    0.89940
  11.68168    1.02197    1.46488    1.26810    0.91640
  11.69670    0.97438    1.50103    1.15199    0.95633
  11.71171    0.92919    1.55040    1.04949    1.01343
  11.72673    0.89106    1.61103    0.96205    1.08217
  11.74174    0.86279    1.67998    0.88928    1.15817
  11.75676    0.84577    1.75432    0.82995    1.23832
  11.77177    0.84058    1.83146    0.78258    1.32056
  11.78679    0.84745    1.90911    0.74579    1.40364
  11.80180    0.86642    1.98501    0.71839    1.48684
  11.81682    0.89729    2.05669    0.69950    1.56979
  11.83183    0.93924    2.12126    0.68851    1.65232
  11.84685    0.99033    2.17564    0.68510    1.73439
  11.86186    1.04686    2.21723    0.68924    1.81596
  11.87688    1.10346    2.24535    0.70114    1.89695
  11.89189    1.15444    2.26266    0.72131    1.97710
  11.90691    1.19642    2.27539    0.75053    2.05593
  11.92192    1.23077    2.29108    0.78981    2.13252
  11.93694    1.26360    2.31505    0.84031    2.20532
  11.95195    1.30338    2.34799    0.90312    2.27188
  11.96697    1.35796    2.38568    0.97885    2.32860
  11.98198    1.43258    2.42017    1.06681    2.37058
  11.99700    1.52871    2.44098    1.16390    2.39201
  12.01201    1.64296    2.43633    1.26334    2.38755
  12.02703    1.76578    2.39523    1.35449    2.35503
  12.04204    1.88106    2.31118    1.42489    2.29866
  12.05706    1.96885    2.18687    1.46530    2.23015
  12.07207    2.01218    2.03640    1.47480    2.16525
  12.08709    2.00451    1.88120    1.46175    2.11705
  12.10210    1.95184    1.74106    1.43950    2.09083
  12.11712    1.86706    1.62721    1.42040    2.08365
  12.13213    1.76235    1.54247    1.41183    2.08733
  12.14715    1.64587    1.48613    1.41513    2.09235
  12.16216    1.52334    1.45759    1.42645    2.09113
  12.17718    1.40050    1.45644    1.43903    2.08020
  12.19219    1.28352    1.48085    1.44629    2.06058
  12.20721    1.17760    1.52696    1.44406    2.03598
  12.22222    1.08594    1.58981    1.43054    2.01055
  12.23724    1.00967    1.66451    1.40501    1.98824
  12.25225    0.94850    1.74702    1.36757    1.97374
  12.26727    0.90143    1.83439    1.32052    1.97247
  12.28228    0.86729    1.92455    1.26924    1.98871
  12.29730    0.84499    2.01613    1.22093    2.02370
  12.31231    0.83376    2.10818    1.18240    2.07524
  12.32733    0.83310    2.19994    1.15867    2.13889
  12.34234    0.84284    2.29061    1.15273    2.20920
  12.35736    0.86304    2.37922    1.16593    2.28040
  12.37237    0.89382    2.46434    1.19826    2.34636
  12.38739    0.93512    2.54397    1.24803    2.40049
  12.40240    0.98615    2.61549    1.31106    2.43592
  12.41742    1.04486    2.67595    1.37960    2.44665
  12.43243    1.10733    2.72294    1.44201    2.43009
  12.44745    1.16797    2.75608    1.48480    2.39019
  12.46246    1.22112    2.77837    1.49738    2.33875
  12.47748    1.26362    2.79590    1.47731    2.29227
  12.49249    1.29676    2.81536    1.43163    2.26562
  12.50751    1.32535    2.84063    1.37314    2.26675
  12.52252    1.35470    2.87130    1.31484    2.29604
  12.53754    1.38741    2.90391    1.26654    2.34892
  12.55255    1.42229    2.93493    1.23421    2.41887
  12.56757    1.45560    2.96372    1.22084    2.49928
  12.58258    1.48425    2.99361    1.22765    2.58402
  12.59760    1.50889    3.03020    1.25472    2.66719
  12.61261    1.53458    3.07772    1.30103    2.74266
  12.62763    1.56864    3.13635    1.36384    2.80390
  12.64264    1.61762    3.20172    1.43756    2.84433
  12.65766    1.68496    3.26625    1.51278    2.85913
  12.67267    1.76969    3.32102    1.57662    2.84815
  12.68769    1.86581    3.35809    1.61604    2.81881
  12.70270    1.96284    3.37367    1.62326    2.78576
  12.71772    2.04867    3.37112    1.59991    2.76598
  12.73273    2.11500    3.36158    1.55618    2.77219
  12.74775    2.16252    3.35992    1.50563    2.80938
  12.76276    2.20139    3.37768    1.46020    2.87590
  12.77778    2.24675    3.41790    1.42805    2.96669
  12.79279    2.31270    3.47468    1.41380    3.07597
  12.80781    2.40825    3.53569    1.41982    3.19866
  12.82282    2.53547    3.58539    1.44737    3.33067
  12.83784    2.68858    3.60811    1.49753    3.46862
  12.85285    2.85387    3.59188    1.57152    3.60939
  12.86787    3.01192    3.53301    1.67085    3.74953
  12.88288    3.14335    3.43900    1.79711    3.88470
  12.89790    3.23593    3.32641    1.95137    4.00920
  12.91291    3.28774    3.21412    2.13321    4.11585
  12.92793    3.30440    3.11761    2.33954    4.19648
  12.94294    3.29476    3.04838    2.56360    4.24332
  12.95796    3.27041    3.01569    2.79504    4.25113
  12.97297    3.24695    3.02541    3.02114    4.21899
  12.98799    3.24304    3.07681    3.22887    4.15139
  13.00300    3.27645    3.16100    3.40730    4.05857
  13.01802    3.36025    3.26235    3.55059    3.95568
  13.03303    3.50078    3.36118    3.66056    3.86006
  13.04805    3.69669    3.43642    3.74738    3.78713
  13.06306    3.93846    3.46859    3.82826    3.74659
  13.07808    4.20928    3.44392    3.92444    3.73923
  13.09309    4.48921    3.35788    4.05673    3.75532
  13.10811    4.76170    3.21504    4.24025    3.77531
  13.12312    5.01809    3.02338    4.47992    3.77345
  13.13814    5.25583    2.78742    4.76832    3.72351
  13.15315    5.47262    2.50573    5.08715    3.60517
  13.16817    5.66151    2.17307    5.41263    3.40833
  13.18318    5.80829    1.78429    5.72209    3.13230
  13.19820    5.89048    1.33954    5.99682    2.78068
  13.21321    5.88013    0.85160    6.21923    2.35750
  13.22823    5.75323    0.35073    6.36836    1.86875
  13.24324    5.50209   -0.11907    6.41899    1.32826
  13.25826    5.14243   -0.51236    6.34691    0.76378
  13.27327    4.71017   -0.79683    6.13940    0.21769
  13.28829    4.24965   -0.96169    5.80516   -0.26111
  13.30330    3.80032   -1.01634    5.37618   -0.63155
  13.31832    3.38893   -0.98210    4.89910   -0.87278
  13.33333    3.02876   -0.88319    4.42101   -0.98734
  13.34835    2.72309   -0.74107    3.97804   -0.99502
  13.36336    2.46940   -0.57221    3.59144   -0.92296
  13.37838    2.26264   -0.38829    3.26979   -0.79792
  13.39339    2.09719   -0.19707    3.01332   -0.64273
  13.41      1.968     -.3658E-2   2.818     -.4758   
  13.42342    1.87048    0.18865    2.67566   -0.31184
  13.43844    1.80149    0.37751    2.57805   -0.16319
  13.45345    1.75832    0.56099    2.51262   -0.03939
  13.46847    1.73886    0.73710    2.46397    0.05427
  13.48348    1.74103    0.90350    2.41496    0.11956
  13.49850    1.76209    1.05752    2.35110    0.16677
  13.51351    1.79805    1.19670    2.26598    0.21215
  13.52853    1.84336    1.32001    2.16334    0.27162
  13.54354    1.89184    1.42939    2.05387    0.35485
  13.55856    1.93908    1.53024    1.94955    0.46384
  13.57357    1.98488    1.62980    1.85962    0.59533
  13.58859    2.03379    1.73367    1.78961    0.74392
  13.60360    2.09275    1.84316    1.74215    0.90427
  13.61862    2.16773    1.95510    1.71824    1.07195
  13.63363    2.26145    2.06392    1.71826    1.24339
  13.64865    2.37322    2.16444    1.74258    1.41551
  13.66366    2.50087    2.25386    1.79179    1.58525
  13.67868    2.64353    2.33146    1.86655    1.74891
  13.69369    2.80329    2.39562    1.96716    1.90178
  13.70871    2.98314    2.44023    2.09255    2.03784
  13.72372    3.18216    2.45380    2.23913    2.15039
  13.73874    3.39034    2.42322    2.39960    2.23362
  13.75375    3.58762    2.34125    2.56345    2.28551
  13.76877    3.74898    2.21429    2.71982    2.31019
  13.78378    3.85543    2.06427    2.86245    2.31718
  13.79880    3.90378    1.92146    2.99232    2.31644
  13.81381    3.90787    1.81224    3.11500    2.31287
  13.82883    3.89131    1.75072    3.23469    2.30567
  13.84384    3.87845    1.73799    3.35061    2.29297
  13.85886    3.88857    1.76620    3.45920    2.27696
  13.87387    3.93461    1.82394    3.55935    2.26474
  13.88889    4.02553    1.89967    3.65591    2.26458
  13.90390    4.16928    1.98133    3.75892    2.28158
  13.91892    4.37336    2.05374    3.88092    2.31554
  13.93393    4.64203    2.09678    4.03416    2.36070
  13.94895    4.97323    2.08640    4.22863    2.40675
  13.96396    5.35630    1.99726    4.47107    2.44031
  13.97898    5.77157    1.80535    4.76561    2.44561
  13.99399    6.18924    1.49083    5.11319    2.40347
  14.00901    6.56886    1.04236    5.50937    2.29046
  14.02402    6.86121    0.46457    5.94018    2.08014
  14.03904    7.01666   -0.21598    6.37893    1.74696
  14.05406    6.99746   -0.94981    6.78378    1.27307
  14.06907    6.78963   -1.67231    7.09974    0.65784
  14.08409    6.40888   -2.31771    7.26764   -0.07271
  14.09910    5.89803   -2.83425    7.24030   -0.86203
  14.11411    5.31493   -3.19629    7.00089   -1.63235
  14.12913    4.71674   -3.40590    6.57260   -2.30476
  14.14415    4.14695   -3.48543    6.01200   -2.82315
  14.15916    3.63140   -3.46594    5.38954   -3.16665
  14.17418    3.18021   -3.37788    4.76761   -3.34716
  14.18919    2.79336   -3.24631    4.18899   -3.39554
  14.20420    2.46524   -3.08973    3.67530   -3.34766
  14.21922    2.18829   -2.92088    3.23284   -3.23549
  14.23423    1.95461   -2.74802    2.85864   -3.08370
  14.24925    1.75709   -2.57635    2.54571   -2.90985
  14.26427    1.58951   -2.40889    2.28579   -2.72562
  14.27928    1.44677   -2.24736    2.07112   -2.53857
  14.29429    1.32462   -2.09254    1.89488   -2.35332
  14.30931    1.21963   -1.94472    1.75159   -2.17276
  14.32432    1.12901   -1.80379    1.63687   -1.99861
  14.33934    1.05051   -1.66950    1.54750   -1.83212
  14.35435    0.98230   -1.54147    1.48114   -1.67440
  14.36937    0.92290   -1.41926    1.43615   -1.52677
  14.38438    0.87111   -1.30245    1.41128   -1.39118
  14.39940    0.82595   -1.19055    1.40523   -1.27042
  14.41441    0.78665   -1.08315    1.41590   -1.16829
  14.42943    0.75256   -0.97983    1.43949   -1.08926
  14.44444    0.72322   -0.88021    1.46951   -1.03746
  14.45946    0.69823   -0.78392    1.49671   -1.01476
  14.47447    0.67735   -0.69065    1.51034   -1.01872
  14.48949    0.66040   -0.60010    1.50099   -1.04174
  14.50450    0.64733   -0.51204    1.46351   -1.07237
  14.51952    0.63817   -0.42629    1.39862   -1.09813
  14.53453    0.63309   -0.34275    1.31252   -1.10883
  14.54955    0.63233   -0.26142    1.21454   -1.09893
  14.56456    0.63626   -0.18252    1.11415   -1.06800
  14.57958    0.64533   -0.10644    1.01846   -1.01924
  14.59460    0.66005   -0.03400    0.93156   -0.95729
  14.60961    0.68079    0.03354    0.85500   -0.88673
  14.62463    0.70761    0.09432    0.78870   -0.81121
  14.63964    0.73977    0.14581    0.73178   -0.73337
  14.65466    0.77510    0.18520    0.68307   -0.65496
  14.66967    0.80950    0.21017    0.64137   -0.57712
  14.68469    0.83696    0.22042    0.60559   -0.50048
  14.69970    0.85097    0.21924    0.57480   -0.42541
  14.71472    0.84725    0.21359    0.54822   -0.35206
  14.72973    0.82599    0.21200    0.52520   -0.28047
  14.74475    0.79179    0.22122    0.50521   -0.21058
  14.75976    0.75124    0.24419    0.48784   -0.14234
  14.77478    0.71028    0.28041    0.47273   -0.07560
  14.79     0.6729     0.3274     0.4596     -.1026E-1
  14.80481    0.64130    0.38236    0.44823    0.05382
  14.81982    0.61614    0.44270    0.43842    0.11676
  14.83484    0.59751    0.50652    0.43002    0.17871
  14.84985    0.58518    0.57245    0.42291    0.23979
  14.86487    0.57887    0.63953    0.41700    0.30011
  14.87988    0.57843    0.70708    0.41220    0.35981
  14.89490    0.58382    0.77445    0.40846    0.41899
  14.90991    0.59521    0.84102    0.40572    0.47778
  14.92492    0.61283    0.90590    0.40397    0.53629
  14.93994    0.63700    0.96790    0.40319    0.59463
  14.95496    0.66779    1.02528    0.40338    0.65290
  14.96997    0.70476    1.07570    0.40454    0.71124
  14.98499    0.74629    1.11636    0.40672    0.76973
  15.00000    0.78907    1.14457    0.40993    0.82852
# 
# 03/01/2017 at 15:53 YAMBO @ anomaly [start]
# 03/01/2017 at 15:53                 [end]
#  
# Timing   [Min/Max/Average]: 04s/04s/04s
#
# .-Input file : yambo.in
# | optics                       # [R OPT] Optics
# | bse                          # [R BSE] Bethe Salpeter Equation.
# | bsk                          # [R BSK] Bethe Salpeter Equation kernel
# | bss                          # [R BSS] Bethe Salpeter Equation solver
# | tddft                        # [R   K] Use TDDFT kernel
# | BoseTemp= 0.000000     eV    # Bosonic Temperature
# | FFTGvecs=  9939        RL    # [FFT] Plane-waves
# | X_Threads= 1                 # [OPENMP/X] Number of threads for response functions
# | DIP_Threads= 1               # [OPENMP/X] Number of threads for dipoles
# | NonPDirs= "XYZ"              # [X/BSS] Non periodic chartesian directions (X,Y,Z,XY...)
# | BSEmod= "retarded"           # [BSE] resonant/retarded/coupling
# | BSKmod= "ALDA"               # [BSE] IP/Hartree/HF/ALDA/SEX/BSfxc
# | BSSmod= "d"                  # [BSS] (h)aydock/(d)iagonalization/(i)nversion/(t)ddft`
# | BSENGexx=  9045        RL    # [BSK] Exchange components
# | % BEnRange
# |   0.00000 | 15.00000 | eV    # [BSS] Energy range
# | %
# | % BDmRange
# |   0.10000 |  0.10000 | eV    # [BSS] Damping range
# | %
# | BEnSteps= 1000               # [BSS] Energy steps
# | % BLongDir
# | 0.1000E-4 | 0.000    | 0.000    |        # [BSS] [cc] Electric Field
# | %
# | % BSEBands
# |    1 | 200 |                 # [BSK] Bands range
# | %
