#                                                                     
#  **    **    **     ****     ****  ******     *******               
# //**  **    ****   /**/**   **/** /*////**   **/////**              
#  //****    **//**  /**//** ** /** /*   /**  **     //**             
#   //**    **  //** /** //***  /** /******  /**      /**             
#    /**   **********/**  //*   /** /*//// **/**      /**             
#    /**  /**//////**/**   /    /** /*    /**//**     **              
#    /**  /**     /**/**        /** /*******  //*******               
#    //   //      // //         //  ///////    ///////                
#                                                                     
# Version 5.1.0 Revision 22026 Hash (prev commit) 3ddfa14f2           
#                  Branch is devel-tddft                              
#         MPI+OpenMP+SLK+SLEPC+HDF5_MPI_IO Build                      
#                http://www.yambo-code.org                            
#
# Absorption @ Q(1):  0.999999975E-5   0.00000000      0.00000000    [q->0 direction]
#
# [GEN] GF Energies                               : Teter 93(XC)
# [GEN] Green`s Function                          : Retarded
#
# [GEN] Gauge                                     : Length
# [GEN] [r,Vnl] included                          : yes
#
# DIP band range                                  :   3   5
# DIP band range limits                           :   4   5
# DIP e/h energy range                            :  -1.00000000     -1.00000000    [eV]
# RL vectors in the sum                           :   749
# [r,Vnl] included                                : yes
# Bands ordered                                   : yes
# Direct v evaluation                             : no
# Approach used                                   : G-space v
# Dipoles computed                                : R V P
# Wavefunctions                                   : Teter 93(XC)
#
#
# [K] Identifier                                  :   6286
# [K] Dimension                                   :   512
# [K] Bands                                       :   3   5
# [K] Exchange res                                : yes
# [K] Correlation res                             : no
# [K] Kernel`s coupling                           : no
# [K] Exchange cpl                                : no
# [K] Correlation cpl                             : no
# [K] W interaction is bare                       : no
# [K] ALDA kernel in R-space                      : yes
# [K] RL vectors exchange                         :   59
# [K] E/h energy range                            :  -1.00000000     -1.00000000    [eV]
# [K] Coupling range                              :   100.000000      100.000000    [o/o]
# [X] Response Kind                               : BAR
#                                                 
# [Haydock] Accuracy (requested)                  :  0.499999989E-2 [o/o]
# [Haydock] Accuracy (reached)                    :  0.354290777E-2 [o/o]
# [Haydock] Iterations                            :  29
#
# Diamagnetic term                                
# Ao                                              :  -7.26603270    [nel]
# A                                               :   0.00000000    [nel]
#
#    E[1] [eV]          Im(eps)            Re(eps)            Im(eps_o)          Re(eps_o)          Im(eps`)           Re(eps`)
#
        7.500000           0.026598           1.909755           0.023638           1.865088           0.026598           1.909755
        7.558529           0.028198           1.925641           0.025002           1.879199           0.028198           1.925641
        7.617057           0.029951           1.942379           0.026493           1.894029           0.029951           1.942379
        7.675586           0.031882           1.960050           0.028130           1.909643           0.031882           1.960050
        7.734114           0.034017           1.978745           0.029933           1.926126           0.034017           1.978745
        7.792643           0.036390           1.998573           0.031931           1.943557           0.036390           1.998573
        7.851171           0.039045           2.019659           0.034158           1.962045           0.039045           2.019659
        7.909699           0.042033           2.042150           0.036654           1.981706           0.042033           2.042150
        7.968227           0.045421           2.066221           0.039474           2.002678           0.045421           2.066221
        8.026756           0.049296           2.092080           0.042684           2.025134           0.049296           2.092080
        8.085285           0.053769           2.119982           0.046374           2.049276           0.053769           2.119982
        8.143813           0.058988           2.150236           0.050658           2.075347           0.058988           2.150236
        8.202342           0.065156           2.183227           0.055695           2.103657           0.065156           2.183227
        8.260870           0.072549           2.219436           0.061700           2.134590           0.072549           2.219436
        8.319398           0.081561           2.259483           0.068977           2.168628           0.081561           2.259483
        8.377926           0.092765           2.304165           0.077965           2.206415           0.092765           2.304165
        8.436455           0.107020           2.354537           0.089319           2.248763           0.107020           2.354537
        8.494983           0.125665           2.412001           0.104049           2.296770           0.125665           2.412001
        8.553512           0.150865           2.478454           0.123776           2.351931           0.150865           2.478454
        8.612040           0.186299           2.556437           0.151222           2.416215           0.186299           2.556437
        8.670568           0.238549           2.649218           0.191197           2.492223           0.238549           2.649218
        8.729097           0.320073           2.760249           0.252694           2.582916           0.320073           2.760249
        8.787625           0.455612           2.889770           0.353393           2.689584           0.455612           2.889770
        8.846154           0.694020           3.019004           0.528606           2.802458           0.694020           3.019004
        8.904682           1.107008           3.048980           0.837190           2.861854           1.107008           3.048980
        8.963211           1.615020           2.698437           1.271159           2.665856           1.615020           2.698437
        9.021739           1.642930           1.965251           1.427498           2.079590           1.642930           1.965251
        9.080268           1.162884           1.591869           1.072247           1.667114           1.162884           1.591869
        9.138796           0.758361           1.617917           0.699420           1.639445           0.758361           1.617917
        9.197325           0.528597           1.760048           0.478377           1.749387           0.528597           1.760048
        9.255853           0.405015           1.913408           0.358797           1.879067           0.405015           1.913408
        9.314382           0.338715           2.057400           0.294046           2.002135           0.338715           2.057400
        9.372910           0.305008           2.192250           0.259787           2.116688           0.305008           2.192250
        9.431437           0.291900           2.322167           0.244087           2.225800           0.291900           2.322167
        9.489966           0.293705           2.451700           0.241117           2.333126           0.293705           2.451700
        9.548495           0.308148           2.585183           0.248213           2.442113           0.308148           2.585183
        9.607023           0.335180           2.726909           0.264589           2.556026           0.335180           2.726909
        9.665551           0.376664           2.881476           0.290854           2.678235           0.376664           2.881476
        9.724080           0.436703           3.054156           0.329006           2.812422           0.436703           3.054156
        9.782609           0.522686           3.251261           0.382857           2.962918           0.522686           3.251261
        9.841137           0.647532           3.480326           0.459015           3.134937           0.647532           3.480326
        9.899666           0.834255           3.749409           0.568943           3.334659           0.834255           3.749409
        9.958194           1.125041           4.062745           0.733007           3.568204           1.125041           4.062745
        10.01672           1.597592           4.402996           0.988393           3.836832           1.597592           4.402996
        10.07525           2.377389           4.667971           1.401310           4.117771           2.377389           4.667971
        10.13378           3.528668           4.518871           2.061854           4.303579           3.528667           4.518871
        10.19231           4.544981           3.502554           2.937321           4.118544           4.544985           3.502556
        10.25084           4.592319           2.191634           3.592558           3.417469           4.592296           2.191624
        10.30936           4.161244           1.462945           3.757471           2.662746           4.161300           1.462961
        10.36789           3.856403           1.035032           3.761746           2.075348           3.856338           1.035008
        10.42642           3.583781           0.647865           3.686146           1.538406           3.583821           0.647901
        10.48495           3.294222           0.222463           3.575972           0.969500           3.294219           0.222432
        10.54348           2.724198          -0.173324           3.133784           0.307394           2.724184          -0.173316
        10.60201           2.030432          -0.177549           2.359292           0.054255           2.030436          -0.177542
        10.66053           1.539195           0.099262           1.731323           0.231237           1.539200           0.099262
        10.71906           1.272804           0.454340           1.365250           0.562249           1.272806           0.454337
        10.77759           1.176403           0.808831           1.199243           0.915512           1.176401           0.808828
        10.83612           1.225110           1.133056           1.188210           1.249458           1.225105           1.133055
        10.89465           1.417647           1.377967           1.321404           1.527829           1.417642           1.377972
        10.95318           1.696815           1.448424           1.568956           1.673844           1.696822           1.448435
        11.01171           1.886410           1.363767           1.794160           1.656814           1.886428           1.363758
        11.07023           2.010946           1.319655           1.953488           1.632226           2.010935           1.319628
        11.12876           2.253549           1.218189           2.219587           1.573592           2.253513           1.218201
        11.18729           2.418846           0.843336           2.478128           1.238397           2.418862           0.843382
        11.24582           2.224356           0.470945           2.378126           0.800384           2.224406           0.470927
        11.30435           1.952541           0.396820           2.106564           0.652024           1.952525           0.396765
        11.36288           1.865917           0.415302           2.008335           0.657458           1.865855           0.415316
        11.42140           1.833597           0.281786           2.016028           0.515387           1.833617           0.281850
        11.47993           1.605153           0.105522           1.823448           0.261936           1.605203           0.105502
        11.53846           1.276416           0.125266           1.455287           0.202116           1.276407           0.125233
        11.59699           1.031775           0.303484           1.149290           0.351487           1.031753           0.303480
        11.65552           0.900494           0.539631           0.969837           0.586568           0.900482           0.539642
        11.71405           0.861809           0.790763           0.895012           0.844517           0.861808           0.790778
        11.77257           0.905084           1.046106           0.905820           1.108014           0.905095           1.046119
        11.83110           1.040098           1.300782           1.003223           1.373300           1.040121           1.300784
        11.88963           1.299497           1.534764           1.210602           1.630055           1.299523           1.534735
        11.94816           1.731284           1.675309           1.573160           1.833790           1.731254           1.675241
        12.00669           2.322267           1.538889           2.122382           1.851337           2.322126           1.538923
        12.06522           2.775426           0.933416           2.707525           1.450872           2.775493           0.933652
        12.12375           2.643461           0.168491           2.855625           0.674345           2.643773           0.168364
        12.18227           2.127126          -0.192100           2.441123           0.115271           2.126953          -0.192473
        12.24080           1.688696          -0.160072           1.945463           0.025010           1.688247          -0.159861
        12.29933           1.465480           0.025987           1.651626           0.185885           1.465745           0.026548
        12.35786           1.430779           0.210204           1.575559           0.393443           1.431494           0.209801
        12.41639           1.506127           0.304382           1.647493           0.530528           1.505371           0.303583
        12.47492           1.594960           0.314112           1.766963           0.574832           1.594469           0.315330
        12.53344           1.697293           0.292452           1.912414           0.572743           1.698574           0.292237
        12.59197           1.847176           0.202709           2.118217           0.500158           1.846453           0.201965
        12.65050           1.998355          -0.040235           2.362646           0.263762           1.998231          -0.039581
        12.70903           1.972465          -0.442149           2.468383          -0.201464           1.972772          -0.442280
        12.76756           1.680843          -0.775373           2.257695          -0.699043           1.680747          -0.775453
        12.82609           1.295649          -0.892288           1.832397          -0.999610           1.295632          -0.892256
        12.88461           0.965413          -0.845367           1.380994          -1.060521           0.965421          -0.845361
        12.94314           0.728740          -0.725273           1.024862          -0.966066           0.728743          -0.725275
        13.00167           0.568865          -0.588457           0.778945          -0.814760           0.568865          -0.588458
        13.06020           0.460742          -0.457318           0.614034          -0.657142           0.460742          -0.457318
        13.11873           0.386126          -0.337839           0.502100          -0.510284           0.386126          -0.337840
        13.17726           0.333649          -0.230113           0.424599          -0.377616           0.333649          -0.230113
        13.23579           0.296485          -0.132494           0.370268          -0.258095           0.296485          -0.132494
        13.29431           0.270599          -0.043026           0.332436          -0.149480           0.270599          -0.043026
        13.35284           0.253738           0.040110           0.307288          -0.049479           0.253738           0.040110
        13.41137           0.244927           0.118419           0.292958           0.043881           0.244927           0.118419
        13.46990           0.244275           0.192879           0.289112           0.131955           0.244275           0.192879
        13.52843           0.252872           0.263392           0.296762           0.214828           0.252872           0.263392
        13.58696           0.272075           0.327551           0.317493           0.289888           0.272075           0.327551
        13.64548           0.300150           0.379608           0.349755           0.350258           0.300150           0.379607
        13.70401           0.326366           0.416193           0.381212           0.390352           0.326365           0.416193
        13.76254           0.339256           0.450433           0.395539           0.423891           0.339256           0.450433
        13.82107           0.348700           0.501041           0.401280           0.475624           0.348700           0.501040
        13.87960           0.374652           0.568977           0.422936           0.549484           0.374652           0.568977
        13.93813           0.430821           0.644933           0.477394           0.634793           0.430821           0.644933
        13.99666           0.529111           0.715986           0.577596           0.717367           0.529111           0.715986
        14.05518           0.682420           0.757312           0.737893           0.772203           0.682420           0.757312
        14.11371           0.888887           0.717889           0.960865           0.747234           0.888887           0.717889
        14.17224           1.083226           0.533854           1.187811           0.568865           1.083226           0.533854
        14.23077           1.125968           0.235123           1.267963           0.245862           1.125968           0.235123
        14.28930           0.978823          -0.007915           1.128408          -0.043667           0.978823          -0.007915
        14.34783           0.770612          -0.101761           0.898109          -0.169773           0.770612          -0.101761
        14.40635           0.602776          -0.092263           0.704122          -0.170014           0.602776          -0.092263
        14.46488           0.495292          -0.043000           0.578505          -0.118512           0.495292          -0.043000
        14.52341           0.435695           0.007440           0.509555          -0.063086           0.435695           0.007440
        14.58194           0.401070           0.039589           0.471021          -0.028709           0.401070           0.039589
        14.64047           0.365744           0.055941           0.431710          -0.014063           0.365744           0.055941
        14.69900           0.323156           0.075894           0.382179           0.004249           0.323156           0.075894
        14.75752           0.285991           0.106720           0.337705           0.036317           0.285991           0.106720
        14.81605           0.261177           0.140788           0.307490           0.073127           0.261177           0.140788
        14.87458           0.246131           0.172286           0.288523           0.107349           0.246131           0.172286
        14.93311           0.239586           0.200489           0.279090           0.138377           0.239586           0.200489
        14.99164           0.243065           0.220745           0.281367           0.161157           0.243065           0.220745
        15.05017           0.250503           0.223810           0.289002           0.164753           0.250503           0.223810
        15.10869           0.244941           0.209932           0.282588           0.148591           0.244941           0.209932
        15.16722           0.217524           0.197581           0.251102           0.133473           0.217524           0.197581
        15.22575           0.180495           0.201334           0.208120           0.136744           0.180495           0.201334
        15.28428           0.147404           0.218494           0.169498           0.155697           0.147404           0.218494
        15.34281           0.122113           0.241549           0.139928           0.181640           0.122113           0.241549
        15.40134           0.103542           0.265811           0.118215           0.209059           0.103542           0.265811
        15.45986           0.089802           0.289273           0.102163           0.235584           0.089802           0.289273
        15.51839           0.079391           0.311272           0.090016           0.260421           0.079391           0.311272
        15.57692           0.071285           0.331691           0.080570           0.283432           0.071285           0.331691
        15.63545           0.064808           0.350613           0.073034           0.304713           0.064808           0.350613
        15.69398           0.059512           0.368183           0.066883           0.324427           0.059512           0.368183
        15.75251           0.055094           0.384550           0.061760           0.342754           0.055094           0.384550
        15.81104           0.051347           0.399852           0.057422           0.359849           0.051347           0.399852
        15.86957           0.048122           0.414209           0.053694           0.375862           0.048122           0.414209
        15.92809           0.045312           0.427727           0.050451           0.390905           0.045312           0.427727
        15.98662           0.042836           0.440493           0.047599           0.405084           0.042836           0.440493
        16.04515           0.040636           0.452584           0.045068           0.418492           0.040636           0.452584
        16.10368           0.038664           0.464065           0.042804           0.431199           0.038664           0.464065
        16.16220           0.036886           0.474990           0.040765           0.443273           0.036886           0.474990
        16.22073           0.035270           0.485411           0.038916           0.454769           0.035270           0.485411
        16.27926           0.033796           0.495368           0.037230           0.465738           0.033796           0.495368
        16.33779           0.032443           0.504898           0.035687           0.476220           0.032443           0.504898
        16.39632           0.031197           0.514035           0.034267           0.486255           0.031197           0.514035
        16.45485           0.030045           0.522807           0.032955           0.495878           0.030045           0.522807
        16.51338           0.028975           0.531240           0.031739           0.505117           0.028975           0.531240
        16.57191           0.027979           0.539358           0.030609           0.513997           0.027979           0.539358
        16.63043           0.027049           0.547180           0.029555           0.522547           0.027049           0.547180
        16.68896           0.026177           0.554726           0.028569           0.530782           0.026177           0.554726
        16.74749           0.025360           0.562013           0.027644           0.538726           0.025360           0.562013
        16.80602           0.024590           0.569056           0.026776           0.546397           0.024590           0.569056
        16.86455           0.023864           0.575869           0.025958           0.553807           0.023864           0.575869
        16.92308           0.023179           0.582464           0.025186           0.560977           0.023179           0.582464
        16.98161           0.022530           0.588854           0.024456           0.567912           0.022530           0.588854
        17.04013           0.021915           0.595050           0.023766           0.574632           0.021915           0.595050
        17.09866           0.021332           0.601061           0.023111           0.581145           0.021332           0.601061
        17.15719           0.020776           0.606897           0.022488           0.587463           0.020776           0.606897
        17.21572           0.020248           0.612565           0.021896           0.593595           0.020248           0.612565
        17.27425           0.019744           0.618075           0.021333           0.599548           0.019744           0.618075
        17.33278           0.019263           0.623433           0.020795           0.605333           0.019263           0.623433
        17.39130           0.018803           0.628647           0.020282           0.610957           0.018803           0.628647
        17.44983           0.018363           0.633722           0.019792           0.616428           0.018363           0.633722
        17.50836           0.017941           0.638665           0.019322           0.621753           0.017941           0.638665
        17.56689           0.017537           0.643481           0.018873           0.626937           0.017537           0.643481
        17.62542           0.017150           0.648176           0.018442           0.631986           0.017150           0.648176
        17.68394           0.016777           0.652754           0.018028           0.636907           0.016777           0.652754
        17.74247           0.016419           0.657220           0.017631           0.641703           0.016419           0.657220
        17.80100           0.016075           0.661579           0.017250           0.646382           0.016075           0.661579
        17.85953           0.015744           0.665835           0.016883           0.650944           0.015744           0.665835
        17.91806           0.015424           0.669992           0.016529           0.655400           0.015424           0.669992
        17.97659           0.015116           0.674052           0.016189           0.659750           0.015116           0.674052
        18.03512           0.014819           0.678021           0.015861           0.663998           0.014819           0.678021
        18.09364           0.014532           0.681901           0.015544           0.668148           0.014532           0.681901
        18.15217           0.014255           0.685695           0.015239           0.672204           0.014255           0.685695
        18.21070           0.013987           0.689406           0.014944           0.676170           0.013987           0.689406
        18.26923           0.013728           0.693038           0.014659           0.680049           0.013728           0.693038
        18.32776           0.013478           0.696592           0.014383           0.683842           0.013478           0.696592
        18.38629           0.013235           0.700071           0.014116           0.687555           0.013235           0.700071
        18.44481           0.013000           0.703479           0.013858           0.691186           0.013000           0.703479
        18.50334           0.012772           0.706816           0.013608           0.694742           0.012772           0.706816
        18.56187           0.012551           0.710086           0.013366           0.698226           0.012551           0.710086
        18.62040           0.012337           0.713291           0.013131           0.701636           0.012337           0.713291
        18.67893           0.012129           0.716432           0.012903           0.704978           0.012129           0.716432
        18.73746           0.011927           0.719511           0.012682           0.708254           0.011927           0.719511
        18.79598           0.011731           0.722531           0.012468           0.711464           0.011731           0.722531
        18.85451           0.011541           0.725493           0.012259           0.714610           0.011541           0.725493
        18.91304           0.011355           0.728399           0.012057           0.717695           0.011355           0.728399
        18.97157           0.011175           0.731250           0.011860           0.720721           0.011175           0.731250
        19.03010           0.011000           0.734048           0.011669           0.723691           0.011000           0.734048
        19.08863           0.010829           0.736795           0.011483           0.726604           0.010829           0.736795
        19.14716           0.010663           0.739492           0.011303           0.729463           0.010663           0.739492
        19.20568           0.010502           0.742140           0.011127           0.732269           0.010502           0.742140
        19.26421           0.010344           0.744741           0.010955           0.735023           0.010344           0.744741
        19.32274           0.010191           0.747296           0.010788           0.737729           0.010191           0.747296
        19.38127           0.010041           0.749806           0.010626           0.740385           0.010041           0.749806
        19.43980           0.009895           0.752273           0.010467           0.742995           0.009895           0.752273
        19.49833           0.009753           0.754697           0.010313           0.745558           0.009753           0.754697
        19.55686           0.009614           0.757079           0.010162           0.748077           0.009614           0.757079
        19.61538           0.009479           0.759422           0.010015           0.750552           0.009479           0.759422
        19.67391           0.009346           0.761725           0.009872           0.752984           0.009346           0.761725
        19.73244           0.009217           0.763990           0.009732           0.755377           0.009217           0.763990
        19.79097           0.009091           0.766218           0.009596           0.757728           0.009091           0.766218
        19.84950           0.008968           0.768409           0.009462           0.760040           0.008968           0.768409
        19.90802           0.008848           0.770565           0.009332           0.762315           0.008848           0.770565
        19.96655           0.008730           0.772686           0.009205           0.764551           0.008730           0.772686
        20.02508           0.008615           0.774774           0.009081           0.766752           0.008615           0.774774
        20.08361           0.008503           0.776828           0.008959           0.768916           0.008503           0.776828
        20.14214           0.008393           0.778850           0.008841           0.771047           0.008393           0.778850
        20.20067           0.008285           0.780841           0.008725           0.773143           0.008285           0.780841
        20.25920           0.008180           0.782801           0.008611           0.775208           0.008180           0.782801
        20.31772           0.008077           0.784731           0.008500           0.777239           0.008077           0.784731
        20.37625           0.007976           0.786632           0.008392           0.779238           0.007976           0.786632
        20.43478           0.007877           0.788504           0.008285           0.781208           0.007877           0.788504
        20.49331           0.007781           0.790348           0.008181           0.783147           0.007781           0.790348
        20.55184           0.007686           0.792164           0.008079           0.785056           0.007686           0.792164
        20.61037           0.007593           0.793954           0.007979           0.786938           0.007593           0.793954
        20.66890           0.007502           0.795718           0.007882           0.788791           0.007502           0.795718
        20.72742           0.007413           0.797456           0.007786           0.790616           0.007413           0.797456
        20.78595           0.007326           0.799169           0.007692           0.792415           0.007326           0.799169
        20.84448           0.007240           0.800857           0.007600           0.794187           0.007240           0.800857
        20.90301           0.007156           0.802521           0.007510           0.795934           0.007156           0.802521
        20.96154           0.007074           0.804162           0.007422           0.797655           0.007074           0.804162
        21.02007           0.006993           0.805780           0.007335           0.799353           0.006993           0.805780
        21.07859           0.006914           0.807375           0.007250           0.801025           0.006914           0.807375
        21.13712           0.006836           0.808948           0.007167           0.802675           0.006836           0.808948
        21.19565           0.006760           0.810499           0.007086           0.804301           0.006760           0.810499
        21.25418           0.006685           0.812029           0.007005           0.805904           0.006685           0.812029
        21.31271           0.006612           0.813539           0.006927           0.807486           0.006612           0.813539
        21.37123           0.006540           0.815028           0.006850           0.809045           0.006540           0.815028
        21.42976           0.006469           0.816497           0.006774           0.810583           0.006469           0.816497
        21.48829           0.006399           0.817946           0.006700           0.812101           0.006399           0.817946
        21.54682           0.006331           0.819376           0.006627           0.813599           0.006331           0.819376
        21.60535           0.006264           0.820788           0.006555           0.815075           0.006264           0.820788
        21.66388           0.006198           0.822181           0.006484           0.816533           0.006198           0.822181
        21.72241           0.006133           0.823556           0.006415           0.817971           0.006133           0.823556
        21.78094           0.006070           0.824913           0.006347           0.819391           0.006070           0.824913
        21.83946           0.006007           0.826252           0.006281           0.820791           0.006007           0.826252
        21.89799           0.005945           0.827575           0.006215           0.822173           0.005945           0.827575
        21.95652           0.005885           0.828880           0.006151           0.823538           0.005885           0.828880
        22.01505           0.005826           0.830170           0.006087           0.824886           0.005826           0.830170
        22.07358           0.005767           0.831443           0.006025           0.826216           0.005767           0.831443
        22.13210           0.005710           0.832700           0.005964           0.827529           0.005710           0.832700
        22.19063           0.005653           0.833942           0.005903           0.828826           0.005653           0.833942
        22.24916           0.005598           0.835168           0.005844           0.830106           0.005598           0.835168
        22.30769           0.005543           0.836379           0.005786           0.831370           0.005543           0.836379
        22.36622           0.005489           0.837576           0.005729           0.832620           0.005489           0.837576
        22.42475           0.005436           0.838758           0.005672           0.833853           0.005436           0.838758
        22.48327           0.005384           0.839926           0.005617           0.835071           0.005384           0.839926
        22.54180           0.005333           0.841079           0.005563           0.836275           0.005333           0.841079
        22.60033           0.005282           0.842220           0.005509           0.837464           0.005282           0.842220
        22.65886           0.005232           0.843346           0.005456           0.838639           0.005232           0.843346
        22.71739           0.005183           0.844459           0.005404           0.839799           0.005183           0.844459
        22.77592           0.005135           0.845559           0.005353           0.840946           0.005135           0.845559
        22.83445           0.005088           0.846647           0.005303           0.842080           0.005088           0.846647
        22.89297           0.005041           0.847721           0.005253           0.843199           0.005041           0.847721
        22.95150           0.004995           0.848784           0.005204           0.844306           0.004995           0.848784
        23.01003           0.004950           0.849834           0.005156           0.845400           0.004950           0.849834
        23.06856           0.004905           0.850872           0.005109           0.846481           0.004905           0.850872
        23.12709           0.004861           0.851898           0.005062           0.847550           0.004861           0.851898
        23.18562           0.004818           0.852913           0.005016           0.848607           0.004818           0.852913
        23.24415           0.004775           0.853916           0.004971           0.849650           0.004775           0.853916
        23.30268           0.004733           0.854908           0.004926           0.850683           0.004733           0.854908
        23.36120           0.004691           0.855889           0.004882           0.851704           0.004691           0.855889
        23.41973           0.004650           0.856859           0.004839           0.852713           0.004650           0.856859
        23.47826           0.004610           0.857818           0.004796           0.853711           0.004610           0.857818
        23.53679           0.004570           0.858767           0.004754           0.854699           0.004570           0.858767
        23.59532           0.004531           0.859705           0.004713           0.855675           0.004531           0.859705
        23.65384           0.004493           0.860634           0.004672           0.856640           0.004493           0.860634
        23.71237           0.004455           0.861552           0.004632           0.857595           0.004455           0.861552
        23.77090           0.004417           0.862460           0.004592           0.858539           0.004417           0.862460
        23.82943           0.004380           0.863359           0.004553           0.859473           0.004380           0.863359
        23.88796           0.004343           0.864248           0.004514           0.860397           0.004343           0.864248
        23.94649           0.004307           0.865127           0.004476           0.861311           0.004307           0.865127
        24.00501           0.004272           0.865997           0.004439           0.862215           0.004272           0.865997
        24.06354           0.004237           0.866858           0.004402           0.863110           0.004237           0.866858
        24.12207           0.004202           0.867710           0.004365           0.863995           0.004202           0.867710
        24.18060           0.004168           0.868554           0.004329           0.864871           0.004168           0.868554
        24.23913           0.004134           0.869388           0.004293           0.865737           0.004134           0.869388
        24.29766           0.004101           0.870214           0.004258           0.866595           0.004101           0.870214
        24.35619           0.004068           0.871031           0.004224           0.867443           0.004068           0.871031
        24.41471           0.004036           0.871840           0.004190           0.868283           0.004036           0.871840
        24.47324           0.004004           0.872641           0.004156           0.869114           0.004004           0.872641
        24.53177           0.003972           0.873433           0.004123           0.869937           0.003972           0.873433
        24.59030           0.003941           0.874218           0.004090           0.870751           0.003941           0.874218
        24.64883           0.003910           0.874994           0.004057           0.871557           0.003910           0.874994
        24.70736           0.003880           0.875763           0.004025           0.872355           0.003880           0.875763
        24.76588           0.003850           0.876524           0.003994           0.873144           0.003850           0.876524
        24.82441           0.003820           0.877278           0.003963           0.873926           0.003820           0.877278
        24.88294           0.003791           0.878024           0.003932           0.874700           0.003791           0.878024
        24.94147           0.003762           0.878763           0.003901           0.875466           0.003762           0.878763
        25.00000           0.003734           0.879495           0.003871           0.876224           0.003734           0.879495
# 
# 03/10/2023 at 10:31 yambo @ unimi-XPS-8930 [start]
# 03/10/2023 at 10:31                        [end]
#  
# Timing   [Min/Max/Average]: 06s/06s/06s
#
# .-Input file  yambo.in
# | optics                           # [R] Linear Response optical properties
# | bss                              # [R] BSE solver
# | bse                              # [R][BSE] Bethe Salpeter Equation.
# | BoseTemp= 0.000000         eV    # Bosonic Temperature
# | FFTGvecs=  749             RL    # [FFT] Plane-waves
# | BS_nCPU_LinAlg_INV= 1            # [PARALLEL] CPUs for Linear Algebra (if -1 it is automatically set)
# | BS_nCPU_LinAlg_DIAGO= 1          # [PARALLEL] CPUs for Linear Algebra (if -1 it is automatically set)
# | X_Threads= 1                     # [OPENMP/X] Number of threads for response functions
# | DIP_Threads= 1                   # [OPENMP/X] Number of threads for dipoles
# | K_Threads= 1                     # [OPENMP/BSK] Number of threads for response functions
# | BSKmod= "ALDA"                   # [BSE] IP/Hartree/HF/ALDA/SEX/BSfxc
# | BSEmod= "retarded"               # [BSE] resonant/retarded/coupling
# | BSSmod= "h"                      # [BSS] (h)aydock/(d)iagonalization/(s)lepc/(i)nversion/(t)ddft`
# | DipComputed= "R V P"             # [DIP] [default R P V; extra P2 Spin Orb]
# | BSENGexx=  59              RL    # [BSK] Exchange components
# | BSENGfxc=  59              RL    # [BSK] Fxc components
# | FxcCutScheme= "lower_Gmax"       # [TDDFT] ("none","lower_Gmax","lower_GmGp","full_grid")
# | % BSEQptR
# |  1 | 1 |                             # [BSK] Transferred momenta range
# | %
# | % BSEBands
# |   3 |  5 |                           # [BSK] Bands range
# | %
# | % BEnRange
# |   7.50000 | 25.00000 |         eV    # [BSS] Energy range
# | %
# | % BDmRange
# |  0.100000 | 0.300000 |         eV    # [BSS] Damping range
# | %
# | BEnSteps= 300                    # [BSS] Energy steps
# | % BLongDir
# |  0.100000E-4 |  0.00000    |  0.00000    # [BSS] [cc] Electric Field
# | %
# | BSEprop= "abs"                   # [BSS] Can be any among abs/jdos/kerr/magn/dich/photolum/esrt
# | BSEdips= "none"                  # [BSS] Can be "trace/none" or "xy/xz/yz" to define off-diagonal rotation plane
# | BSHayTrs= 0.005000               # [BSS] Relative [o/o] Haydock threshold. Strict(>0)/Average(<0)
