#                                                                     
# :   :::   :::     ::::    ::::  :::::::::   ::::::::                
# :+:   :+: :+: :+:   +:+:+: :+:+:+ :+:    :+: :+:    :+              
#  +:+ +:+ +:+   +:+  +:+ +:+:+ +:+ +:+    +:+ +:+    +:+             
#   +#++: +#++:++#++: +#+  +:+  +#+ +#++:++#+  +#+    +:+             
#    +#+  +#+     +#+ +#+       +#+ +#+    +#+ +#+    +#+             
#    #+#  #+#     #+# #+#       #+# #+#    #+# #+#    #+#             
#    ###  ###     ### ###       ### #########   ########              
#                                                                     
#                                                                     
# Version 5.1.0 Revision 22026 Hash (prev commit) 3ddfa14f2           
#                  Branch is devel-tddft                              
#         MPI+OpenMP+SLK+SLEPC+HDF5_MPI_IO Build                      
#                http://www.yambo-code.org                            
#
# Absorption @ Q(1):  0.999999975E-5   0.00000000      0.00000000    [q->0 direction]
#
# [GEN] GF Energies                               : Teter 93(XC)
# [GEN] Green`s Function                          : Retarded
#
# [GEN] Gauge                                     : Length
# [GEN] [r,Vnl] included                          : yes
#
# DIP band range                                  :   3   5
# DIP band range limits                           :   4   5
# DIP e/h energy range                            :  -1.00000000     -1.00000000    [eV]
# RL vectors in the sum                           :   749
# [r,Vnl] included                                : yes
# Bands ordered                                   : yes
# Direct v evaluation                             : no
# Approach used                                   : G-space v
# Dipoles computed                                : R V P
# Wavefunctions                                   : Teter 93(XC)
#
#
# [K] Identifier                                  :   7842
# [K] Dimension                                   :   512
# [K] Bands                                       :   3   5
# [K] Exchange res                                : yes
# [K] Correlation res                             : no
# [K] Kernel`s coupling                           : no
# [K] Exchange cpl                                : no
# [K] Correlation cpl                             : no
# [K] W interaction is bare                       : no
# [K] ALDA kernel in R-space                      : yes
# [K] RL vectors exchange                         :   59
# [K] E/h energy range                            :  -1.00000000     -1.00000000    [eV]
# [K] Coupling range                              :   100.000000      100.000000    [o/o]
# [X] Response Kind                               : BAR
#                                                 
# [Haydock] Accuracy (requested)                  :  0.499999989E-2 [o/o]
# [Haydock] Accuracy (reached)                    :  0.180468592E-2 [o/o]
# [Haydock] Iterations                            :  26
#
# Diamagnetic term                                
# Ao                                              :  -7.26603270    [nel]
# A                                               :   0.00000000    [nel]
#
#    E[1] [eV]          Im(eps)            Re(eps)            Im(eps_o)          Re(eps_o)          Im(eps`)           Re(eps`)
#
        7.500000           0.023311           1.861326           0.023638           1.865088           0.023311           1.861326
        7.558529           0.024645           1.875237           0.025002           1.879199           0.024645           1.875237
        7.617057           0.026100           1.889853           0.026493           1.894029           0.026100           1.889853
        7.675586           0.027696           1.905236           0.028130           1.909643           0.027696           1.905236
        7.734114           0.029454           1.921461           0.029933           1.926126           0.029454           1.921461
        7.792643           0.031399           1.938613           0.031931           1.943557           0.031399           1.938613
        7.851171           0.033563           1.956787           0.034158           1.962045           0.033563           1.956787
        7.909699           0.035988           1.976101           0.036654           1.981706           0.035988           1.976101
        7.968227           0.038722           1.996688           0.039474           2.002678           0.038722           1.996688
        8.026756           0.041830           2.018710           0.042684           2.025134           0.041830           2.018710
        8.085285           0.045397           2.042362           0.046374           2.049276           0.045397           2.042362
        8.143813           0.049532           2.067880           0.050658           2.075347           0.049532           2.067880
        8.202342           0.054384           2.095556           0.055695           2.103657           0.054384           2.095556
        8.260870           0.060156           2.125757           0.061700           2.134590           0.060156           2.125757
        8.319398           0.067135           2.158945           0.068977           2.168628           0.067135           2.158945
        8.377926           0.075734           2.195719           0.077965           2.206415           0.075734           2.195719
        8.436455           0.086566           2.236861           0.089319           2.248763           0.086566           2.236861
        8.494983           0.100575           2.283411           0.104049           2.296770           0.100575           2.283411
        8.553512           0.119272           2.336768           0.123776           2.351931           0.119272           2.336768
        8.612040           0.145180           2.398814           0.151222           2.416215           0.145180           2.398814
        8.670568           0.182744           2.472016           0.191197           2.492223           0.182744           2.472016
        8.729097           0.240229           2.559221           0.252694           2.582916           0.240229           2.559221
        8.787625           0.333837           2.661990           0.353393           2.689584           0.333837           2.661990
        8.846154           0.495973           2.772430           0.528606           2.802458           0.495973           2.772430
        8.904682           0.782382           2.839283           0.837190           2.861854           0.782382           2.839283
        8.963211           1.199886           2.680098           1.271159           2.665856           1.199886           2.680098
        9.021739           1.392372           2.131528           1.427498           2.079590           1.392372           2.131528
        9.080268           1.072101           1.701094           1.072247           1.667114           1.072101           1.701094
        9.138796           0.701484           1.655055           0.699420           1.639445           0.701484           1.655055
        9.197325           0.477599           1.757951           0.478377           1.749387           0.477599           1.757951
        9.255853           0.356352           1.884470           0.358797           1.879067           0.356352           1.884470
        9.314382           0.290784           2.005392           0.294046           2.002135           0.290784           2.005392
        9.372910           0.256024           2.118030           0.259787           2.116688           0.256024           2.118030
        9.431437           0.239868           2.225221           0.244087           2.225800           0.239868           2.225221
        9.489966           0.236345           2.330506           0.241117           2.333126           0.236345           2.330506
        9.548495           0.242688           2.437234           0.248213           2.442113           0.242688           2.437234
        9.607023           0.258006           2.548582           0.264589           2.556026           0.258006           2.548582
        9.665551           0.282761           2.667778           0.290854           2.678235           0.282761           2.667778
        9.724080           0.318731           2.798357           0.329006           2.812422           0.318731           2.798357
        9.782609           0.369347           2.944440           0.382857           2.962918           0.369347           2.944440
        9.841137           0.440571           3.111000           0.459015           3.134937           0.440571           3.111000
        9.899666           0.542681           3.303967           0.568943           3.334659           0.542681           3.303967
        9.958194           0.693814           3.529530           0.733007           3.568204           0.693814           3.529530
        10.01672           0.926913           3.790358           0.988393           3.836832           0.926913           3.790358
        10.07525           1.301007           4.070390           1.401310           4.117771           1.301007           4.070390
        10.13378           1.901820           4.285002           2.061854           4.303579           1.901820           4.285002
        10.19231           2.733914           4.198431           2.937321           4.118544           2.733914           4.198431
        10.25084           3.457137           3.618662           3.592558           3.417469           3.457140           3.618662
        10.30936           3.747081           2.875612           3.757471           2.662746           3.747066           2.875607
        10.36789           3.817072           2.236469           3.761746           2.075348           3.817100           2.236487
        10.42642           3.763250           1.652879           3.686146           1.538406           3.763225           1.652843
        10.48495           3.663528           1.050862           3.575972           0.969500           3.663524           1.050901
        10.54348           3.224918           0.350024           3.133784           0.307394           3.224941           0.350012
        10.60201           2.430438           0.065488           2.359292           0.054255           2.430428           0.065474
        10.66053           1.778279           0.233124           1.731323           0.231237           1.778269           0.233127
        10.71906           1.395945           0.565858           1.365250           0.562249           1.395944           0.565868
        10.77759           1.220267           0.924068           1.199243           0.915512           1.220275           0.924076
        10.83612           1.203367           1.264279           1.188210           1.249458           1.203384           1.264275
        10.89465           1.333782           1.551374           1.321404           1.527829           1.333783           1.551346
        10.95318           1.586156           1.709308           1.568956           1.673844           1.586105           1.709305
        11.01171           1.828164           1.696275           1.794160           1.656814           1.828176           1.696348
        11.07023           1.999733           1.660899           1.953488           1.632226           1.999807           1.660870
        11.12876           2.269178           1.590819           2.219587           1.573592           2.269144           1.590750
        11.18729           2.527213           1.244038           2.478128           1.238397           2.527153           1.244071
        11.24582           2.420381           0.797132           2.378126           0.800384           2.420407           0.797179
        11.30435           2.141497           0.647011           2.106564           0.652024           2.141535           0.646998
        11.36288           2.040632           0.653356           2.008335           0.657458           2.040630           0.653327
        11.42140           2.048903           0.509321           2.016028           0.515387           2.048882           0.509318
        11.47993           1.854158           0.250335           1.823448           0.261936           1.854152           0.250348
        11.53846           1.479598           0.187363           1.455287           0.202116           1.479603           0.187369
        11.59699           1.167522           0.337634           1.149290           0.351487           1.167527           0.337634
        11.65552           0.984160           0.575449           0.969837           0.586568           0.984163           0.575447
        11.71405           0.907331           0.836541           0.895012           0.844517           0.907332           0.836538
        11.77257           0.917650           1.103135           0.905820           1.108014           0.917649           1.103132
        11.83110           1.016030           1.371232           1.003223           1.373300           1.016029           1.371230
        11.88963           1.226171           1.630063           1.210602           1.630055           1.226167           1.630062
        11.94816           1.593665           1.833697           1.573160           1.833790           1.593658           1.833700
        12.00669           2.148571           1.845713           2.122382           1.851337           2.148567           1.845724
        12.06522           2.732339           1.433046           2.707525           1.450872           2.732351           1.433064
        12.12375           2.866505           0.650763           2.855625           0.674345           2.866539           0.650755
        12.18227           2.441708           0.099757           2.441123           0.115271           2.441716           0.099709
        12.24080           1.945380           0.018195           1.945463           0.025010           1.945323           0.018153
        12.29933           1.653875           0.184220           1.651626           0.185885           1.653772           0.184277
        12.35786           1.580717           0.395473           1.575559           0.393443           1.580761           0.395691
        12.41639           1.657365           0.535868           1.647493           0.530528           1.657800           0.535802
        12.47492           1.784991           0.580429           1.766963           0.574832           1.784706           0.579711
        12.53344           1.937901           0.571376           1.912414           0.572743           1.937132           0.572149
        12.59197           2.144300           0.488360           2.118217           0.500158           2.145449           0.488695
        12.65050           2.382713           0.242566           2.362646           0.263762           2.382471           0.241564
        12.70903           2.475373          -0.224325           2.468383          -0.201464           2.474866          -0.223852
        12.76756           2.258806          -0.711479           2.257695          -0.699043           2.259127          -0.711348
        12.82609           1.839347          -1.006921           1.832397          -0.999610           1.839370          -1.007052
        12.88461           1.391109          -1.070883           1.380994          -1.060521           1.391067          -1.070895
        12.94314           1.033577          -0.979059           1.024862          -0.966066           1.033567          -0.979048
        13.00167           0.785475          -0.828296           0.778945          -0.814760           0.785476          -0.828290
        13.06020           0.618900          -0.670230           0.614034          -0.657142           0.618902          -0.670228
        13.11873           0.505858          -0.522629           0.502100          -0.510284           0.505860          -0.522629
        13.17726           0.427636          -0.389191           0.424599          -0.377616           0.427637          -0.389191
        13.23579           0.372846          -0.268938           0.370268          -0.258095           0.372847          -0.268939
        13.29431           0.334743          -0.159657           0.332436          -0.149480           0.334743          -0.159658
        13.35284           0.309483          -0.059044           0.307288          -0.049479           0.309482          -0.059044
        13.41137           0.295199           0.034882           0.292958           0.043881           0.295198           0.034882
        13.46990           0.291596           0.123466           0.289112           0.131955           0.291595           0.123466
        13.52843           0.299762           0.206759           0.296762           0.214828           0.299762           0.206760
        13.58696           0.321402           0.282003           0.317493           0.289888           0.321403           0.282004
        13.64548           0.355036           0.341937           0.349755           0.350258           0.355037           0.341937
        13.70401           0.387893           0.380326           0.381212           0.390352           0.387892           0.380324
        13.76254           0.402331           0.410960           0.395539           0.423891           0.402329           0.410960
        13.82107           0.406425           0.460145           0.401280           0.475624           0.406425           0.460147
        13.87960           0.425838           0.532603           0.422936           0.549484           0.425839           0.532603
        13.93813           0.478231           0.617159           0.477394           0.634793           0.478232           0.617159
        13.99666           0.576545           0.699029           0.577596           0.717367           0.576545           0.699029
        14.05518           0.734722           0.752809           0.737893           0.772203           0.734722           0.752809
        14.11371           0.954380           0.726334           0.960865           0.747234           0.954381           0.726334
        14.17224           1.175286           0.547477           1.187811           0.568865           1.175286           0.547477
        14.23077           1.248013           0.229034           1.267963           0.245862           1.248013           0.229034
        14.28930           1.106022          -0.051348           1.128408          -0.043667           1.106022          -0.051348
        14.34783           0.879131          -0.170372           0.898109          -0.169773           0.879131          -0.170372
        14.40635           0.689841          -0.167673           0.704122          -0.170014           0.689841          -0.167673
        14.46488           0.567824          -0.115664           0.578505          -0.118512           0.567824          -0.115664
        14.52341           0.501136          -0.060600           0.509555          -0.063086           0.501137          -0.060600
        14.58194           0.463911          -0.026626           0.471021          -0.028709           0.463911          -0.026626
        14.64047           0.425521          -0.012140           0.431710          -0.014063           0.425521          -0.012140
        14.69900           0.376886           0.006051           0.382179           0.004249           0.376886           0.006051
        14.75752           0.333200           0.037816           0.337705           0.036317           0.333200           0.037816
        14.81605           0.303515           0.074197           0.307490           0.073127           0.303515           0.074197
        14.87458           0.284818           0.107993           0.288523           0.107349           0.284818           0.107993
        14.93311           0.275413           0.138634           0.279090           0.138377           0.275413           0.138634
        14.99164           0.277430           0.161164           0.281367           0.161157           0.277430           0.161164
        15.05017           0.284557           0.164894           0.289002           0.164753           0.284557           0.164894
        15.10869           0.277770           0.149463           0.282588           0.148591           0.277770           0.149463
        15.16722           0.246568           0.135342           0.251102           0.133473           0.246568           0.135342
        15.22575           0.204407           0.139243           0.208120           0.136744           0.204407           0.139243
        15.28428           0.166657           0.158342           0.169498           0.155697           0.166657           0.158342
        15.34281           0.137778           0.184152           0.139928           0.181640           0.137778           0.184152
        15.40134           0.116563           0.211336           0.118215           0.209059           0.116563           0.211336
        15.45986           0.100866           0.237608           0.102163           0.235584           0.100866           0.237608
        15.51839           0.088975           0.262210           0.090016           0.260421           0.088975           0.262210
        15.57692           0.079719           0.285009           0.080570           0.283432           0.079719           0.285009
        15.63545           0.072326           0.306102           0.073034           0.304713           0.072326           0.306102
        15.69398           0.066285           0.325655           0.066883           0.324427           0.066285           0.325655
        15.75251           0.061250           0.343839           0.061760           0.342754           0.061250           0.343839
        15.81104           0.056982           0.360812           0.057422           0.359849           0.056982           0.360812
        15.86957           0.053312           0.376713           0.053694           0.375862           0.053312           0.376713
        15.92809           0.050116           0.391660           0.050451           0.390905           0.050116           0.391660
        15.98662           0.047304           0.405755           0.047599           0.405084           0.047304           0.405755
        16.04515           0.044807           0.419085           0.045068           0.418492           0.044807           0.419085
        16.10368           0.042572           0.431725           0.042804           0.431199           0.042572           0.431725
        16.16220           0.040557           0.443738           0.040765           0.443273           0.040557           0.443738
        16.22073           0.038729           0.455180           0.038916           0.454769           0.038729           0.455180
        16.27926           0.037063           0.466099           0.037230           0.465738           0.037063           0.466099
        16.33779           0.035535           0.476538           0.035687           0.476220           0.035535           0.476538
        16.39632           0.034130           0.486534           0.034267           0.486255           0.034130           0.486534
        16.45485           0.032831           0.496121           0.032955           0.495878           0.032831           0.496121
        16.51338           0.031626           0.505326           0.031739           0.505117           0.031626           0.505326
        16.57191           0.030506           0.514178           0.030609           0.513997           0.030506           0.514178
        16.63043           0.029461           0.522699           0.029555           0.522547           0.029461           0.522699
        16.68896           0.028483           0.530910           0.028569           0.530782           0.028483           0.530910
        16.74749           0.027566           0.538832           0.027644           0.538726           0.027566           0.538832
        16.80602           0.026703           0.546481           0.026776           0.546397           0.026703           0.546481
        16.86455           0.025891           0.553873           0.025958           0.553807           0.025891           0.553873
        16.92308           0.025125           0.561024           0.025186           0.560977           0.025125           0.561024
        16.98161           0.024400           0.567945           0.024456           0.567912           0.024400           0.567945
        17.04013           0.023714           0.574650           0.023766           0.574632           0.023714           0.574650
        17.09866           0.023063           0.581150           0.023111           0.581145           0.023063           0.581150
        17.15719           0.022444           0.587455           0.022488           0.587463           0.022444           0.587455
        17.21572           0.021856           0.593574           0.021896           0.593595           0.021856           0.593574
        17.27425           0.021295           0.599518           0.021333           0.599548           0.021295           0.599518
        17.33278           0.020761           0.605294           0.020795           0.605333           0.020761           0.605294
        17.39130           0.020250           0.610909           0.020282           0.610957           0.020250           0.610909
        17.44983           0.019762           0.616372           0.019792           0.616428           0.019762           0.616372
        17.50836           0.019295           0.621689           0.019322           0.621753           0.019295           0.621689
        17.56689           0.018848           0.626865           0.018873           0.626937           0.018848           0.626865
        17.62542           0.018419           0.631908           0.018442           0.631986           0.018419           0.631908
        17.68394           0.018007           0.636823           0.018028           0.636907           0.018007           0.636823
        17.74247           0.017612           0.641614           0.017631           0.641703           0.017612           0.641614
        17.80100           0.017232           0.646288           0.017250           0.646382           0.017232           0.646288
        17.85953           0.016866           0.650847           0.016883           0.650944           0.016866           0.650847
        17.91806           0.016514           0.655298           0.016529           0.655400           0.016514           0.655298
        17.97659           0.016175           0.659644           0.016189           0.659750           0.016175           0.659644
        18.03512           0.015848           0.663888           0.015861           0.663998           0.015848           0.663888
        18.09364           0.015532           0.668035           0.015544           0.668148           0.015532           0.668035
        18.15217           0.015228           0.672089           0.015239           0.672204           0.015228           0.672089
        18.21070           0.014934           0.676052           0.014944           0.676170           0.014934           0.676052
        18.26923           0.014649           0.679927           0.014659           0.680049           0.014649           0.679927
        18.32776           0.014374           0.683718           0.014383           0.683842           0.014374           0.683718
        18.38629           0.014108           0.687428           0.014116           0.687555           0.014108           0.687428
        18.44481           0.013851           0.691059           0.013858           0.691186           0.013851           0.691059
        18.50334           0.013601           0.694613           0.013608           0.694742           0.013601           0.694613
        18.56187           0.013360           0.698094           0.013366           0.698226           0.013360           0.698094
        18.62040           0.013126           0.701504           0.013131           0.701636           0.013126           0.701504
        18.67893           0.012898           0.704845           0.012903           0.704978           0.012898           0.704845
        18.73746           0.012678           0.708118           0.012682           0.708254           0.012678           0.708118
        18.79598           0.012464           0.711327           0.012468           0.711464           0.012464           0.711327
        18.85451           0.012256           0.714473           0.012259           0.714610           0.012256           0.714473
        18.91304           0.012054           0.717558           0.012057           0.717695           0.012054           0.717558
        18.97157           0.011858           0.720584           0.011860           0.720721           0.011858           0.720584
        19.03010           0.011667           0.723552           0.011669           0.723691           0.011667           0.723552
        19.08863           0.011482           0.726465           0.011483           0.726604           0.011482           0.726465
        19.14716           0.011301           0.729323           0.011303           0.729463           0.011301           0.729323
        19.20568           0.011125           0.732129           0.011127           0.732269           0.011125           0.732129
        19.26421           0.010954           0.734883           0.010955           0.735023           0.010954           0.734883
        19.32274           0.010788           0.737588           0.010788           0.737729           0.010788           0.737588
        19.38127           0.010625           0.740245           0.010626           0.740385           0.010625           0.740245
        19.43980           0.010467           0.742854           0.010467           0.742995           0.010467           0.742854
        19.49833           0.010313           0.745417           0.010313           0.745558           0.010313           0.745417
        19.55686           0.010162           0.747936           0.010162           0.748077           0.010162           0.747936
        19.61538           0.010016           0.750412           0.010015           0.750552           0.010016           0.750412
        19.67391           0.009873           0.752845           0.009872           0.752984           0.009873           0.752845
        19.73244           0.009733           0.755237           0.009732           0.755377           0.009733           0.755237
        19.79097           0.009597           0.757588           0.009596           0.757728           0.009597           0.757588
        19.84950           0.009464           0.759901           0.009462           0.760040           0.009464           0.759901
        19.90802           0.009334           0.762175           0.009332           0.762315           0.009334           0.762175
        19.96655           0.009206           0.764412           0.009205           0.764551           0.009206           0.764412
        20.02508           0.009082           0.766613           0.009081           0.766752           0.009082           0.766613
        20.08361           0.008961           0.768779           0.008959           0.768916           0.008961           0.768779
        20.14214           0.008842           0.770909           0.008841           0.771047           0.008842           0.770909
        20.20067           0.008727           0.773006           0.008725           0.773143           0.008727           0.773006
        20.25920           0.008613           0.775070           0.008611           0.775208           0.008613           0.775070
        20.31772           0.008502           0.777102           0.008500           0.777239           0.008502           0.777102
        20.37625           0.008394           0.779103           0.008392           0.779238           0.008394           0.779103
        20.43478           0.008287           0.781072           0.008285           0.781208           0.008287           0.781072
        20.49331           0.008183           0.783012           0.008181           0.783147           0.008183           0.783012
        20.55184           0.008082           0.784922           0.008079           0.785056           0.008082           0.784922
        20.61037           0.007982           0.786804           0.007979           0.786938           0.007982           0.786804
        20.66890           0.007884           0.788657           0.007882           0.788791           0.007884           0.788657
        20.72742           0.007788           0.790483           0.007786           0.790616           0.007788           0.790483
        20.78595           0.007695           0.792283           0.007692           0.792415           0.007695           0.792283
        20.84448           0.007603           0.794056           0.007600           0.794187           0.007603           0.794056
        20.90301           0.007513           0.795803           0.007510           0.795934           0.007513           0.795803
        20.96154           0.007425           0.797525           0.007422           0.797655           0.007425           0.797525
        21.02007           0.007338           0.799223           0.007335           0.799353           0.007338           0.799223
        21.07859           0.007253           0.800896           0.007250           0.801025           0.007253           0.800896
        21.13712           0.007170           0.802546           0.007167           0.802675           0.007170           0.802546
        21.19565           0.007088           0.804173           0.007086           0.804301           0.007088           0.804173
        21.25418           0.007008           0.805777           0.007005           0.805904           0.007008           0.805777
        21.31271           0.006930           0.807359           0.006927           0.807486           0.006930           0.807359
        21.37123           0.006852           0.808919           0.006850           0.809045           0.006852           0.808919
        21.42976           0.006777           0.810458           0.006774           0.810583           0.006777           0.810458
        21.48829           0.006702           0.811977           0.006700           0.812101           0.006702           0.811977
        21.54682           0.006629           0.813474           0.006627           0.813599           0.006629           0.813474
        21.60535           0.006558           0.814952           0.006555           0.815075           0.006558           0.814952
        21.66388           0.006487           0.816410           0.006484           0.816533           0.006487           0.816410
        21.72241           0.006418           0.817849           0.006415           0.817971           0.006418           0.817849
        21.78094           0.006350           0.819269           0.006347           0.819391           0.006350           0.819269
        21.83946           0.006284           0.820670           0.006281           0.820791           0.006284           0.820670
        21.89799           0.006218           0.822053           0.006215           0.822173           0.006218           0.822053
        21.95652           0.006154           0.823419           0.006151           0.823538           0.006154           0.823419
        22.01505           0.006090           0.824767           0.006087           0.824886           0.006090           0.824767
        22.07358           0.006028           0.826098           0.006025           0.826216           0.006028           0.826098
        22.13210           0.005967           0.827412           0.005964           0.827529           0.005967           0.827412
        22.19063           0.005907           0.828709           0.005903           0.828826           0.005907           0.828709
        22.24916           0.005847           0.829990           0.005844           0.830106           0.005847           0.829990
        22.30769           0.005789           0.831255           0.005786           0.831370           0.005789           0.831255
        22.36622           0.005732           0.832505           0.005729           0.832620           0.005732           0.832505
        22.42475           0.005675           0.833739           0.005672           0.833853           0.005675           0.833739
        22.48327           0.005620           0.834958           0.005617           0.835071           0.005620           0.834958
        22.54180           0.005566           0.836162           0.005563           0.836275           0.005566           0.836162
        22.60033           0.005512           0.837352           0.005509           0.837464           0.005512           0.837352
        22.65886           0.005459           0.838527           0.005456           0.838639           0.005459           0.838527
        22.71739           0.005407           0.839688           0.005404           0.839799           0.005407           0.839688
        22.77592           0.005356           0.840836           0.005353           0.840946           0.005356           0.840836
        22.83445           0.005306           0.841970           0.005303           0.842080           0.005306           0.841970
        22.89297           0.005256           0.843090           0.005253           0.843199           0.005256           0.843090
        22.95150           0.005207           0.844198           0.005204           0.844306           0.005207           0.844198
        23.01003           0.005159           0.845292           0.005156           0.845400           0.005159           0.845292
        23.06856           0.005112           0.846374           0.005109           0.846481           0.005112           0.846374
        23.12709           0.005065           0.847443           0.005062           0.847550           0.005065           0.847443
        23.18562           0.005019           0.848501           0.005016           0.848607           0.005019           0.848501
        23.24415           0.004974           0.849546           0.004971           0.849650           0.004974           0.849546
        23.30268           0.004929           0.850579           0.004926           0.850683           0.004929           0.850579
        23.36120           0.004885           0.851600           0.004882           0.851704           0.004885           0.851600
        23.41973           0.004842           0.852610           0.004839           0.852713           0.004842           0.852610
        23.47826           0.004799           0.853609           0.004796           0.853711           0.004799           0.853609
        23.53679           0.004757           0.854597           0.004754           0.854699           0.004757           0.854597
        23.59532           0.004716           0.855573           0.004713           0.855675           0.004716           0.855573
        23.65384           0.004675           0.856539           0.004672           0.856640           0.004675           0.856539
        23.71237           0.004635           0.857494           0.004632           0.857595           0.004635           0.857494
        23.77090           0.004595           0.858439           0.004592           0.858539           0.004595           0.858439
        23.82943           0.004556           0.859374           0.004553           0.859473           0.004556           0.859374
        23.88796           0.004517           0.860299           0.004514           0.860397           0.004517           0.860299
        23.94649           0.004479           0.861213           0.004476           0.861311           0.004479           0.861213
        24.00501           0.004441           0.862118           0.004439           0.862215           0.004441           0.862118
        24.06354           0.004404           0.863013           0.004402           0.863110           0.004404           0.863013
        24.12207           0.004368           0.863899           0.004365           0.863995           0.004368           0.863899
        24.18060           0.004332           0.864775           0.004329           0.864871           0.004332           0.864775
        24.23913           0.004296           0.865642           0.004293           0.865737           0.004296           0.865642
        24.29766           0.004261           0.866500           0.004258           0.866595           0.004261           0.866500
        24.35619           0.004226           0.867349           0.004224           0.867443           0.004226           0.867349
        24.41471           0.004192           0.868190           0.004190           0.868283           0.004192           0.868190
        24.47324           0.004159           0.869021           0.004156           0.869114           0.004159           0.869021
        24.53177           0.004125           0.869844           0.004123           0.869937           0.004125           0.869844
        24.59030           0.004092           0.870659           0.004090           0.870751           0.004092           0.870659
        24.64883           0.004060           0.871465           0.004057           0.871557           0.004060           0.871465
        24.70736           0.004028           0.872264           0.004025           0.872355           0.004028           0.872264
        24.76588           0.003996           0.873054           0.003994           0.873144           0.003996           0.873054
        24.82441           0.003965           0.873836           0.003963           0.873926           0.003965           0.873836
        24.88294           0.003934           0.874610           0.003932           0.874700           0.003934           0.874610
        24.94147           0.003904           0.875377           0.003901           0.875466           0.003904           0.875377
        25.00000           0.003874           0.876136           0.003871           0.876224           0.003874           0.876136
# 
# 03/10/2023 at 10:31 yambo @ unimi-XPS-8930 [start]
# 03/10/2023 at 10:31                        [end]
#  
# Timing   [Min/Max/Average]: 06s/06s/06s
#
# .-Input file  yambo.in
# | optics                           # [R] Linear Response optical properties
# | bss                              # [R] BSE solver
# | bse                              # [R][BSE] Bethe Salpeter Equation.
# | BoseTemp= 0.000000         eV    # Bosonic Temperature
# | FFTGvecs=  749             RL    # [FFT] Plane-waves
# | BS_nCPU_LinAlg_INV= 1            # [PARALLEL] CPUs for Linear Algebra (if -1 it is automatically set)
# | BS_nCPU_LinAlg_DIAGO= 1          # [PARALLEL] CPUs for Linear Algebra (if -1 it is automatically set)
# | X_Threads= 1                     # [OPENMP/X] Number of threads for response functions
# | DIP_Threads= 1                   # [OPENMP/X] Number of threads for dipoles
# | K_Threads= 1                     # [OPENMP/BSK] Number of threads for response functions
# | BSKmod= "ALDA"                   # [BSE] IP/Hartree/HF/ALDA/SEX/BSfxc
# | BSEmod= "retarded"               # [BSE] resonant/retarded/coupling
# | BSSmod= "h"                      # [BSS] (h)aydock/(d)iagonalization/(s)lepc/(i)nversion/(t)ddft`
# | DipComputed= "R V P"             # [DIP] [default R P V; extra P2 Spin Orb]
# | BSENGexx=  59              RL    # [BSK] Exchange components
# | % BSEQptR
# |  1 | 1 |                             # [BSK] Transferred momenta range
# | %
# | % BSEBands
# |   3 |  5 |                           # [BSK] Bands range
# | %
# | % BEnRange
# |   7.50000 | 25.00000 |         eV    # [BSS] Energy range
# | %
# | % BDmRange
# |  0.100000 | 0.300000 |         eV    # [BSS] Damping range
# | %
# | BEnSteps= 300                    # [BSS] Energy steps
# | % BLongDir
# |  0.100000E-4 |  0.00000    |  0.00000    # [BSS] [cc] Electric Field
# | %
# | BSEprop= "abs"                   # [BSS] Can be any among abs/jdos/kerr/magn/dich/photolum/esrt
# | BSEdips= "none"                  # [BSS] Can be "trace/none" or "xy/xz/yz" to define off-diagonal rotation plane
# | BSHayTrs= 0.005000               # [BSS] Relative [o/o] Haydock threshold. Strict(>0)/Average(<0)
