#                                                           
#                                                           
# Y88b    /   e           e    e      888~~\    ,88~-_      
#  Y88b  /   d8b         d8b  d8b     888   |  d888   \     
#   Y88b/   /Y88b       d888bdY88b    888 _/  88888    |    
#    Y8Y   /  Y88b     / Y88Y Y888b   888  \  88888    |    
#     Y   /____Y88b   /   YY   Y888b  888   |  Y888   /     
#    /   /      Y88b /          Y888b 888__/    `88_-~      
#                                                           
#                                                           
#      Version 4.4.0 Revision 16433 Hash 0b96e480c          
#                  MPI+SLK+OpenMP Build                     
#               http://www.yambo-code.org                   
#
# EELS @ Q(1)  [q->0 direction]:0.1000E-4  0.000     0.000   
#
#
# - Energies      are  Analyt. E
# - Wavefunctions are Teter 93(XC)
#
# - The Green`s function is Retarded -
# - Using the Length Gauge -
# - [r,Vnl] *is* included -
#
#   BSK|Identifier              :4321
#      |Dimension               :512
#      |Bands                   :3 - 5
#      |Exchange           [res]: yes
#      |Correlation        [res]: yes
#      |Kernel`s coupling       : no
#      |Exchange           [cpl]: no
#      |Correlation        [cpl]: no
#      |W interaction is bare   : no
#      |ALDA kernel in R-space  : no
#      |RL vectors    [exchange]:749
#      |RL vectors [correlation]:51
#      |E/h energy range    [ev]:-1.000000 - -1.000000
#      |Coupling range     [o/o]: 100.0000 -  100.0000
#    W |Interaction is diagonal : no
#      |Matrix size             :51
#      |Bands                   :1 - 10
#      |e/h energy range    [ev]:-1.000000 - -1.000000
#      |Poles              [o/o]: 100.0000
#      |RL vectors in the sum   :749
#      |[r,Vnl] included        : yes
#      |Field direction         :0.1000E-4  0.000000  0.000000
#      |Coulomb Cutoff          :none
#      |xc-Kernel               :none
#   RIM|RL components      [col]:0
#      |Random points      [col]:0
#  
#   Haydock|Accuracy (requested) [o/o]:   0.0050
#          |Accuracy (reached)   [o/o]:   0.0020
#          |Iteration                 :34
#
#    E/ev[1]      EEL-Im[2]    EEL-Re[3]    EELo-Im[4]   EELo-Re[5]   EEL`-Im[6]   EEL`-Re[7]
#
    7.500       0.2850E-2    -.6437       0.1274E-2    -.7293       0.2850E-2    -.6437   
    7.559       0.2921E-2    -.6420       0.1300E-2    -.7285       0.2921E-2    -.6420   
    7.617       0.2993E-2    -.6403       0.1327E-2    -.7278       0.2993E-2    -.6403   
    7.676       0.3068E-2    -.6386       0.1354E-2    -.7270       0.3068E-2    -.6386   
    7.734       0.3144E-2    -.6368       0.1381E-2    -.7262       0.3144E-2    -.6368   
    7.793       0.3222E-2    -.6350       0.1409E-2    -.7254       0.3222E-2    -.6350   
    7.851       0.3303E-2    -.6331       0.1438E-2    -.7246       0.3303E-2    -.6331   
    7.910       0.3386E-2    -.6313       0.1467E-2    -.7238       0.3386E-2    -.6313   
    7.968       0.3471E-2    -.6294       0.1497E-2    -.7230       0.3471E-2    -.6294   
    8.027       0.3558E-2    -.6274       0.1527E-2    -.7222       0.3558E-2    -.6274   
    8.085       0.3648E-2    -.6254       0.1558E-2    -.7213       0.3648E-2    -.6254   
    8.144       0.3740E-2    -.6234       0.1589E-2    -.7204       0.3740E-2    -.6234   
    8.202       0.3835E-2    -.6214       0.1621E-2    -.7196       0.3835E-2    -.6214   
    8.261       0.3932E-2    -.6193       0.1654E-2    -.7187       0.3932E-2    -.6193   
    8.319       0.4033E-2    -.6171       0.1687E-2    -.7178       0.4033E-2    -.6171   
    8.378       0.4136E-2    -.6150       0.1721E-2    -.7169       0.4136E-2    -.6150   
    8.436       0.4243E-2    -.6127       0.1756E-2    -.7160       0.4243E-2    -.6127   
    8.495       0.4352E-2    -.6105       0.1791E-2    -.7150       0.4352E-2    -.6105   
    8.554       0.4465E-2    -.6082       0.1827E-2    -.7141       0.4465E-2    -.6082   
    8.612       0.4581E-2    -.6058       0.1864E-2    -.7131       0.4581E-2    -.6058   
    8.671       0.4701E-2    -.6034       0.1901E-2    -.7121       0.4701E-2    -.6034   
    8.729       0.4825E-2    -.6010       0.1940E-2    -.7112       0.4825E-2    -.6010   
    8.788       0.4952E-2    -.5985       0.1979E-2    -.7102       0.4952E-2    -.5985   
    8.846       0.5083E-2    -.5959       0.2018E-2    -.7091       0.5083E-2    -.5959   
    8.905       0.5219E-2    -.5933       0.2059E-2    -.7081       0.5219E-2    -.5933   
    8.963       0.5359E-2    -.5907       0.2100E-2    -.7071       0.5359E-2    -.5907   
    9.022       0.5503E-2    -.5879       0.2143E-2    -.7060       0.5503E-2    -.5879   
    9.080       0.5652E-2    -.5852       0.2186E-2    -.7049       0.5652E-2    -.5852   
    9.139       0.5806E-2    -.5823       0.2230E-2    -.7038       0.5806E-2    -.5823   
    9.197       0.5966E-2    -.5795       0.2275E-2    -.7027       0.5966E-2    -.5795   
    9.256       0.6130E-2    -.5765       0.2321E-2    -.7016       0.6130E-2    -.5765   
    9.314       0.6301E-2    -.5735       0.2368E-2    -.7005       0.6301E-2    -.5735   
    9.373       0.6477E-2    -.5704       0.2416E-2    -.6993       0.6477E-2    -.5704   
    9.431       0.6660E-2    -.5673       0.2465E-2    -.6981       0.6660E-2    -.5673   
    9.490       0.6849E-2    -.5640       0.2515E-2    -.6970       0.6849E-2    -.5640   
    9.548       0.7045E-2    -.5607       0.2566E-2    -.6958       0.7045E-2    -.5607   
    9.607       0.7248E-2    -.5574       0.2618E-2    -.6945       0.7248E-2    -.5574   
    9.666       0.7458E-2    -.5539       0.2672E-2    -.6933       0.7458E-2    -.5539   
    9.724       0.7677E-2    -.5504       0.2726E-2    -.6920       0.7677E-2    -.5504   
    9.783       0.7904E-2    -.5468       0.2782E-2    -.6907       0.7904E-2    -.5468   
    9.841       0.8140E-2    -.5430       0.2839E-2    -.6894       0.8140E-2    -.5430   
    9.900       0.8384E-2    -.5392       0.2898E-2    -.6881       0.8384E-2    -.5392   
    9.958       0.8639E-2    -.5354       0.2958E-2    -.6868       0.8639E-2    -.5354   
    10.02       0.8904E-2    -.5314       0.3019E-2    -.6854       0.8904E-2    -.5314   
    10.08       0.9180E-2    -.5273       0.3082E-2    -.6840       0.9180E-2    -.5273   
    10.13       0.9467E-2    -.5231       0.3146E-2    -.6826       0.9467E-2    -.5231   
    10.19       0.9767E-2    -.5188       0.3211E-2    -.6812       0.9767E-2    -.5188   
    10.25       0.1008E-1    -.5144       0.3279E-2    -.6798       0.1008E-1    -.5144   
    10.31       0.1041E-1    -.5098       0.3347E-2    -.6783       0.1041E-1    -.5098   
    10.37       0.1075E-1    -.5052       0.3418E-2    -.6768       0.1075E-1    -.5052   
    10.43       0.1110E-1    -.5004       0.3490E-2    -.6753       0.1110E-1    -.5004   
    10.48       0.1148E-1    -.4954       0.3564E-2    -.6737       0.1148E-1    -.4954   
    10.54       0.1187E-1    -.4904       0.3640E-2    -.6722       0.1187E-1    -.4904   
    10.60       0.1228E-1    -.4852       0.3718E-2    -.6706       0.1228E-1    -.4852   
    10.66       0.1271E-1    -.4798       0.3798E-2    -.6690       0.1271E-1    -.4798   
    10.72       0.1316E-1    -.4743       0.3880E-2    -.6673       0.1316E-1    -.4743   
    10.78       0.1363E-1    -.4686       0.3964E-2    -.6656       0.1363E-1    -.4686   
    10.84       0.1413E-1    -.4627       0.4050E-2    -.6639       0.1413E-1    -.4627   
    10.89       0.1466E-1    -.4567       0.4139E-2    -.6622       0.1466E-1    -.4567   
    10.95       0.1521E-1    -.4504       0.4230E-2    -.6605       0.1521E-1    -.4504   
    11.01       0.1580E-1    -.4439       0.4323E-2    -.6587       0.1580E-1    -.4439   
    11.07       0.1641E-1    -.4373       0.4419E-2    -.6569       0.1641E-1    -.4373   
    11.13       0.1707E-1    -.4304       0.4518E-2    -.6550       0.1707E-1    -.4304   
    11.19       0.1777E-1    -.4232       0.4619E-2    -.6531       0.1777E-1    -.4232   
    11.25       0.1851E-1    -.4158       0.4723E-2    -.6512       0.1851E-1    -.4158   
    11.30       0.1929E-1    -.4081       0.4831E-2    -.6493       0.1929E-1    -.4081   
    11.36       0.2013E-1    -.4001       0.4941E-2    -.6473       0.2013E-1    -.4001   
    11.42       0.2103E-1    -.3919       0.5055E-2    -.6452       0.2103E-1    -.3919   
    11.48       0.2199E-1    -.3832       0.5172E-2    -.6432       0.2199E-1    -.3832   
    11.54       0.2301E-1    -.3743       0.5293E-2    -.6411       0.2301E-1    -.3743   
    11.60       0.2412E-1    -.3649       0.5417E-2    -.6390       0.2412E-1    -.3649   
    11.66       0.2531E-1    -.3552       0.5545E-2    -.6368       0.2531E-1    -.3552   
    11.71       0.2660E-1    -.3450       0.5678E-2    -.6346       0.2660E-1    -.3450   
    11.77       0.2800E-1    -.3344       0.5814E-2    -.6323       0.2800E-1    -.3344   
    11.83       0.2952E-1    -.3232       0.5955E-2    -.6300       0.2952E-1    -.3232   
    11.89       0.3118E-1    -.3115       0.6101E-2    -.6276       0.3118E-1    -.3115   
    11.95       0.3300E-1    -.2992       0.6252E-2    -.6253       0.3300E-1    -.2992   
    12.01       0.3500E-1    -.2862       0.6408E-2    -.6228       0.3500E-1    -.2862   
    12.07       0.3721E-1    -.2725       0.6569E-2    -.6203       0.3721E-1    -.2725   
    12.12       0.3967E-1    -.2580       0.6736E-2    -.6178       0.3967E-1    -.2580   
    12.18       0.4242E-1    -.2426       0.6910E-2    -.6152       0.4242E-1    -.2426   
    12.24       0.4550E-1    -.2262       0.7089E-2    -.6125       0.4550E-1    -.2262   
    12.30       0.4900E-1    -.2088       0.7276E-2    -.6098       0.4900E-1    -.2088   
    12.36       0.5298E-1    -.1900       0.7469E-2    -.6070       0.5298E-1    -.1900   
    12.42       0.5757E-1    -.1699       0.7671E-2    -.6042       0.5757E-1    -.1699   
    12.47       0.6289E-1    -.1482       0.7880E-2    -.6013       0.6289E-1    -.1482   
    12.53       0.6914E-1    -.1247       0.8098E-2    -.5983       0.6914E-1    -.1247   
    12.59       0.7656E-1    -.9897E-1    0.8326E-2    -.5953       0.7656E-1    -.9897E-1
    12.65       0.8549E-1    -.7080E-1    0.8563E-2    -.5922       0.8549E-1    -.7080E-1
    12.71       0.9642E-1    -.3969E-1    0.8811E-2    -.5890       0.9642E-1    -.3969E-1
    12.77       0.1100       -.5122E-2    0.9070E-2    -.5857       0.1100       -.5122E-2
    12.83       0.1273       0.3358E-1    0.9342E-2    -.5824       0.1273       0.3358E-1
    12.88       0.1497       0.7719E-1    0.9627E-2    -.5790       0.1497       0.7719E-1
    12.94       0.1797       0.1266       0.9927E-2    -.5754       0.1797       0.1266   
    13.00       0.2208       0.1826       0.1024E-1    -.5718       0.2208       0.1826   
    13.06       0.2791       0.2452       0.1057E-1    -.5681       0.2791       0.2452   
    13.12       0.3644       0.3124       0.1093E-1    -.5643       0.3644       0.3124   
    13.18       0.4919       0.3750       0.1130E-1    -.5604       0.4919       0.3750   
    13.24       0.6802       0.4058       0.1169E-1    -.5563       0.6802       0.4058   
    13.29       0.9293       0.3411       0.1211E-1    -.5521       0.9293       0.3411   
    13.35        1.153       0.1013       0.1256E-1    -.5478        1.153       0.1013   
    13.41        1.176       -.2589       0.1304E-1    -.5434        1.176       -.2589   
    13.46990      0.98007     -0.51881      0.01356     -0.53880      0.98007     -0.51881
    13.52843      0.74002     -0.59740      0.01411     -0.53404      0.74002     -0.59740
    13.58696      0.55553     -0.56766      0.01472     -0.52911      0.55553     -0.56766
    13.64548      0.43325     -0.49684      0.01537     -0.52399      0.43325     -0.49684
    13.70401      0.35576     -0.41522      0.01609     -0.51866      0.35576     -0.41522
    13.76254      0.30783     -0.33313      0.01689     -0.51311      0.30783     -0.33313
    13.82107      0.27968     -0.25304      0.01776     -0.50731      0.27968     -0.25304
    13.87960      0.26552     -0.17461      0.01875     -0.50124      0.26552     -0.17461
    13.93813      0.26220     -0.09660      0.01986     -0.49487      0.26220     -0.09660
    13.99666      0.26822     -0.01749      0.02112     -0.48816      0.26822     -0.01749
    14.05518      0.28337      0.06436      0.02258     -0.48108      0.28337      0.06436
    14.11371      0.30857      0.15062      0.02428     -0.47356      0.30857      0.15062
    14.17224      0.34603      0.24293      0.02629     -0.46555      0.34603      0.24293
    14.23077      0.39969      0.34278      0.02873     -0.45698      0.39969      0.34278
    14.28930      0.47608      0.45084      0.03171     -0.44776      0.47608      0.45084
    14.34783      0.58566      0.56551      0.03546     -0.43779      0.58566      0.56551
    14.40635      0.74431      0.67878      0.04029     -0.42696      0.74431      0.67878
    14.46488      0.97215      0.76693      0.04666     -0.41521      0.97215      0.76693
    14.52341      1.27849      0.77450      0.05533     -0.40252      1.27849      0.77450
    14.58194      1.61031      0.61623      0.06745     -0.38918      1.61031      0.61622
    14.64047      1.80539      0.27868      0.08475     -0.37619      1.80538      0.27868
    14.69900      1.75082     -0.05386      0.10939     -0.36633      1.75082     -0.05385
    14.75752      1.57417     -0.20223      0.14230     -0.36592      1.57418     -0.20223
    14.81605      1.44648     -0.19246      0.17753     -0.38474      1.44648     -0.19248
    14.87458      1.41924     -0.12432      0.19654     -0.42526      1.41921     -0.12432
    14.93311      1.47905     -0.05569      0.18435     -0.46744      1.47904     -0.05563
    14.99164      1.62666     -0.01924      0.15293     -0.48881      1.62676     -0.01923
    15.05017      1.85605     -0.09053      0.12188     -0.48921      1.85604     -0.09072
    15.10869      2.05860     -0.35271      0.09876     -0.47826      2.05829     -0.35262
    15.16722      2.05383     -0.73397      0.08322     -0.46277      2.05413     -0.73356
    15.22575      1.82884     -1.01872      0.07323     -0.44586      1.82917     -1.01929
    15.28428      1.54113     -1.11796      0.06705     -0.42866      1.54043     -1.11806
    15.34281      1.29592     -1.08050      0.06353     -0.41150      1.29601     -1.07985
    15.40134      1.12512     -0.96326      0.06196     -0.39434      1.12566     -0.96341
    15.45986      1.03507     -0.80747      0.06190     -0.37705      1.03493     -0.80792
    15.51839      1.02209     -0.64236      0.06314     -0.35946      1.02168     -0.64228
    15.57692      1.08029     -0.49065      0.06562     -0.34136      1.08032     -0.49028
    15.63545      1.19881     -0.37357      0.06937     -0.32256      1.19915     -0.37356
    15.69398      1.36074     -0.30162      0.07459     -0.30286      1.36078     -0.30193
    15.75251      1.56728     -0.27679      0.08160     -0.28211      1.56702     -0.27686
    15.81104      1.83265     -0.34198      0.09094     -0.26024      1.83255     -0.34178
    15.86957      2.09704     -0.58330      0.10336     -0.23741      2.09720     -0.58318
    15.92809      2.18974     -0.99479      0.11975     -0.21430      2.18986     -0.99489
    15.98662      2.01429     -1.38121      0.14068     -0.19232      2.01424     -1.38132
    16.04515      1.69879     -1.57100      0.16549     -0.17326      1.69870     -1.57099
    16.10368      1.40708     -1.58069      0.19224     -0.15766      1.40706     -1.58062
    16.16220      1.19646     -1.49866      0.21982     -0.14388      1.19650     -1.49862
    16.22073      1.05535     -1.38249      0.24959     -0.13010      1.05540     -1.38250
    16.27926      0.96404     -1.24792      0.28527     -0.11568      0.96406     -1.24795
    16.33779      0.91960     -1.09662      0.33341     -0.10468      0.91959     -1.09664
    16.39632      0.92753     -0.93465      0.39675     -0.11100      0.92751     -0.93466
    16.45485      0.99458     -0.77174      0.46089     -0.15268      0.99455     -0.77173
    16.51338      1.13028     -0.62209      0.49199     -0.22798      1.13026     -0.62205
    16.57191      1.34569     -0.51196      0.47073     -0.29942      1.34573     -0.51189
    16.63043      1.64081     -0.48817      0.42084     -0.33231      1.64094     -0.48819
    16.68896      1.97910     -0.61294      0.37596     -0.32805      1.97912     -0.61317
    16.74749      2.26441     -0.92928      0.35000     -0.30528      2.26407     -0.92934
    16.80602      2.35510     -1.39085      0.34056     -0.27884      2.35504     -1.39042
    16.86455      2.18579     -1.82122      0.34016     -0.25305      2.18628     -1.82116
    16.92308      1.87020     -2.06738      0.34692     -0.22524      1.87028     -2.06787
    16.98161      1.55911     -2.13497      0.36521     -0.19676      1.55865     -2.13509
    17.04013      1.31356     -2.09781      0.39548     -0.17560      1.31340     -2.09739
    17.09866      1.13800     -2.00608      0.42928     -0.16689      1.13835     -2.00587
    17.15719      1.03061     -1.88631      0.45889     -0.16384      1.03088     -1.88657
    17.21572      0.99131     -1.76014      0.49143     -0.15786      0.99112     -1.76047
    17.27425      1.01886     -1.65014      0.54007     -0.15730      1.01846     -1.65002
    17.33278      1.10766     -1.58410      0.60211     -0.18519      1.10776     -1.58362
    17.39130      1.23682     -1.59689      0.64778     -0.25662      1.23736     -1.59703
    17.44983      1.35375     -1.71570      0.63926     -0.34939      1.35347     -1.71620
    17.50836      1.38077     -1.91897      0.57644     -0.41501      1.38045     -1.91861
    17.56689      1.28094     -2.12054      0.49593     -0.43043      1.28124     -2.12043
    17.62542      1.09900     -2.24445      0.42764     -0.40618      1.09902     -2.24461
    17.68395      0.90254     -2.27902      0.38131     -0.36002      0.90246     -2.27902
    17.74247      0.73179     -2.25000      0.35662     -0.30399      0.73179     -2.24997
    17.80100      0.59848     -2.18695      0.35133     -0.24471      0.59849     -2.18695
    17.85953      0.49943     -2.11026      0.36419     -0.18657      0.49943     -2.11026
    17.91806      0.42723     -2.03076      0.39494     -0.13463      0.42723     -2.03076
    17.97659      0.37504     -1.95321      0.44197     -0.09677      0.37504     -1.95321
    18.03512      0.33782     -1.87923      0.49708     -0.08287      0.33782     -1.87923
    18.09364      0.31220     -1.80902      0.54187     -0.09589      0.31220     -1.80902
    18.15217      0.29612     -1.74225      0.55921     -0.12054      0.29612     -1.74225
    18.21070      0.28851     -1.67851      0.55214     -0.13437      0.28851     -1.67851
    18.26923      0.28898     -1.61765      0.53575     -0.12982      0.28898     -1.61765
    18.32776      0.29742     -1.56002      0.51827     -0.10991      0.29742     -1.56002
    18.38629      0.31336     -1.50635      0.50230     -0.07603      0.31336     -1.50635
    18.44481      0.33552     -1.45663      0.49105     -0.02761      0.33552     -1.45663
    18.50334      0.36353     -1.40867      0.48896      0.03477      0.36353     -1.40867
    18.56187      0.40117     -1.35989      0.49952      0.10897      0.40117     -1.35989
    18.62040      0.45582     -1.31192      0.52494      0.19348      0.45582     -1.31192
    18.67893      0.53496     -1.27285      0.56841      0.28787      0.53496     -1.27286
    18.73746      0.64234     -1.25823      0.63491      0.39121      0.64234     -1.25824
    18.79598      0.77094     -1.29111      0.73120      0.50126      0.77093     -1.29111
    18.85451      0.89182     -1.39286      0.86650      0.61345      0.89182     -1.39286
    18.91304      0.95558     -1.55720      1.05323      0.71796      0.95558     -1.55720
    18.97157      0.92975     -1.73404      1.30576      0.79416      0.92975     -1.73404
    19.03010      0.83378     -1.86806      1.63277      0.80230      0.83378     -1.86806
    19.08863      0.71093     -1.94240      2.01516      0.67962      0.71093     -1.94240
    19.14716      0.59081     -1.96701      2.37053      0.36579      0.59081     -1.96701
    19.20568      0.48779     -1.95708      2.55515     -0.11747      0.48779     -1.95708
    19.26421      0.40701     -1.92709      2.47895     -0.61638      0.40701     -1.92709
    19.32274      0.34736     -1.88838      2.21393     -0.96491      0.34736     -1.88838
    19.38127      0.30502     -1.84794      1.90788     -1.12564      0.30502     -1.84794
    19.43980      0.27613     -1.80947      1.65338     -1.16027      0.27612     -1.80947
    19.49833      0.25752     -1.77515      1.46687     -1.14232      0.25752     -1.77515
    19.55686      0.24630     -1.74642      1.32236     -1.11324      0.24630     -1.74642
    19.61539      0.23955     -1.72387      1.19070     -1.07464      0.23955     -1.72387
    19.67391      0.23456     -1.70710      1.06697     -1.01051      0.23456     -1.70710
    19.73244      0.22951     -1.69450      0.96395     -0.91542      0.22951     -1.69450
    19.79097      0.22467     -1.68465      0.89215     -0.79692      0.22467     -1.68465
    19.84950      0.22053     -1.67861      0.85442     -0.66473      0.22053     -1.67861
    19.90803      0.21446     -1.67809      0.85019     -0.52551      0.21446     -1.67809
    19.96655      0.20197     -1.68097      0.87931     -0.38339      0.20197     -1.68097
    20.02508      0.18216     -1.68142      0.94360     -0.24203      0.18216     -1.68142
    20.08361      0.15908     -1.67544      1.04686     -0.10725      0.15908     -1.67544
    20.14       0.1372       -1.663        1.193       0.1031E-1    0.1372       -1.663   
    20.20067      0.11882     -1.64791      1.37983      0.09387      0.11882     -1.64791
    20.25920      0.10399     -1.63094      1.59322      0.12601      0.10399     -1.63094
    20.31772      0.09220     -1.61385      1.80625      0.10473      0.09220     -1.61385
    20.37625      0.08277     -1.59727      2.00427      0.05117      0.08277     -1.59727
    20.43       0.7513E-1    -1.581        2.203       -.1966E-1    0.7513E-1    -1.581   
    20.49331      0.06883     -1.56657      2.42068     -0.12888      0.06883     -1.56657
    20.55184      0.06357     -1.55252      2.63359     -0.30981      0.06357     -1.55252
    20.61037      0.05911     -1.53927      2.79122     -0.55964      0.05911     -1.53927
    20.66890      0.05527     -1.52678      2.86165     -0.83370      0.05527     -1.52678
    20.72742      0.05193     -1.51497      2.85301     -1.07700      0.05193     -1.51497
    20.78595      0.04899     -1.50379      2.81176     -1.25081      0.04899     -1.50379
    20.84448      0.04638     -1.49318      2.80710     -1.36286      0.04638     -1.49318
    20.90301      0.04406     -1.48309      2.88491     -1.47848      0.04406     -1.48309
    20.96154      0.04196     -1.47348      3.02520     -1.68906      0.04196     -1.47348
    21.02007      0.04006     -1.46431      3.12964     -2.05172      0.04006     -1.46431
    21.07859      0.03833     -1.45554      3.07020     -2.52068      0.03833     -1.45554
    21.13712      0.03674     -1.44715      2.80011     -2.95477      0.03674     -1.44715
    21.19565      0.03528     -1.43909      2.39771     -3.23636      0.03528     -1.43909
    21.25418      0.03393     -1.43136      1.97747     -3.34966      0.03393     -1.43136
    21.31271      0.03269     -1.42393      1.60879     -3.34257      0.03269     -1.42393
    21.37123      0.03152     -1.41677      1.31088     -3.26854      0.03152     -1.41677
    21.42976      0.03044     -1.40987      1.07815     -3.16444      0.03044     -1.40987
    21.48829      0.02943     -1.40322      0.89780     -3.05110      0.02943     -1.40322
    21.54682      0.02848     -1.39680      0.75742     -2.93904      0.02848     -1.39680
    21.60535      0.02759     -1.39059      0.64704     -2.83301      0.02759     -1.39059
    21.66388      0.02675     -1.38458      0.55914     -2.73478      0.02675     -1.38458
    21.72241      0.02595     -1.37876      0.48823     -2.64471      0.02595     -1.37876
    21.78094      0.02520     -1.37313      0.43030     -2.56247      0.02520     -1.37313
    21.83946      0.02449     -1.36767      0.38240     -2.48746      0.02449     -1.36767
    21.89799      0.02382     -1.36237      0.34237     -2.41898      0.02382     -1.36237
    21.95652      0.02318     -1.35722      0.30856     -2.35634      0.02318     -1.35722
    22.01505      0.02257     -1.35222      0.27975     -2.29891      0.02257     -1.35222
    22.07       0.2199E-1    -1.347       0.2550       -2.246       0.2199E-1    -1.347   
    22.13       0.2144E-1    -1.343       0.2335       -2.197       0.2144E-1    -1.343   
    22.19       0.2091E-1    -1.338       0.2148       -2.152       0.2091E-1    -1.338   
    22.25       0.2041E-1    -1.334       0.1984       -2.111       0.2041E-1    -1.334   
    22.31       0.1992E-1    -1.329       0.1839       -2.072       0.1992E-1    -1.329   
    22.37       0.1946E-1    -1.325       0.1711       -2.036       0.1946E-1    -1.325   
    22.42       0.1902E-1    -1.321       0.1596       -2.002       0.1902E-1    -1.321   
    22.48       0.1859E-1    -1.317       0.1493       -1.970       0.1859E-1    -1.317   
    22.54       0.1818E-1    -1.313       0.1400       -1.941       0.1818E-1    -1.313   
    22.60       0.1779E-1    -1.309       0.1316       -1.913       0.1779E-1    -1.309   
    22.66       0.1741E-1    -1.305       0.1240       -1.887       0.1741E-1    -1.305   
    22.72       0.1705E-1    -1.302       0.1171       -1.862       0.1705E-1    -1.302   
    22.78       0.1670E-1    -1.298       0.1108       -1.838       0.1670E-1    -1.298   
    22.83       0.1636E-1    -1.295       0.1050       -1.816       0.1636E-1    -1.295   
    22.89       0.1603E-1    -1.291       0.9973E-1    -1.795       0.1603E-1    -1.291   
    22.95       0.1572E-1    -1.288       0.9484E-1    -1.775       0.1572E-1    -1.288   
    23.01       0.1541E-1    -1.284       0.9033E-1    -1.756       0.1541E-1    -1.284   
    23.07       0.1512E-1    -1.281       0.8615E-1    -1.738       0.1512E-1    -1.281   
    23.13       0.1483E-1    -1.278       0.8227E-1    -1.721       0.1483E-1    -1.278   
    23.19       0.1456E-1    -1.275       0.7867E-1    -1.704       0.1456E-1    -1.275   
    23.24       0.1429E-1    -1.272       0.7532E-1    -1.689       0.1429E-1    -1.272   
    23.30       0.1404E-1    -1.269       0.7219E-1    -1.673       0.1404E-1    -1.269   
    23.36       0.1379E-1    -1.266       0.6927E-1    -1.659       0.1379E-1    -1.266   
    23.42       0.1354E-1    -1.263       0.6654E-1    -1.645       0.1354E-1    -1.263   
    23.48       0.1331E-1    -1.261       0.6397E-1    -1.632       0.1331E-1    -1.261   
    23.54       0.1308E-1    -1.258       0.6156E-1    -1.619       0.1308E-1    -1.258   
    23.60       0.1286E-1    -1.255       0.5929E-1    -1.607       0.1286E-1    -1.255   
    23.65       0.1264E-1    -1.253       0.5716E-1    -1.595       0.1264E-1    -1.253   
    23.71       0.1244E-1    -1.250       0.5515E-1    -1.584       0.1244E-1    -1.250   
    23.77       0.1223E-1    -1.248       0.5325E-1    -1.573       0.1223E-1    -1.248   
    23.83       0.1204E-1    -1.245       0.5145E-1    -1.562       0.1204E-1    -1.245   
    23.89       0.1184E-1    -1.243       0.4975E-1    -1.552       0.1184E-1    -1.243   
    23.95       0.1166E-1    -1.240       0.4814E-1    -1.542       0.1166E-1    -1.240   
    24.01       0.1148E-1    -1.238       0.4661E-1    -1.533       0.1148E-1    -1.238   
    24.06       0.1130E-1    -1.236       0.4516E-1    -1.524       0.1130E-1    -1.236   
    24.12       0.1113E-1    -1.233       0.4378E-1    -1.515       0.1113E-1    -1.233   
    24.18       0.1096E-1    -1.231       0.4246E-1    -1.506       0.1096E-1    -1.231   
    24.24       0.1080E-1    -1.229       0.4121E-1    -1.498       0.1080E-1    -1.229   
    24.30       0.1064E-1    -1.227       0.4002E-1    -1.490       0.1064E-1    -1.227   
    24.36       0.1048E-1    -1.225       0.3888E-1    -1.482       0.1048E-1    -1.225   
    24.41       0.1033E-1    -1.223       0.3780E-1    -1.474       0.1033E-1    -1.223   
    24.47       0.1018E-1    -1.221       0.3676E-1    -1.467       0.1018E-1    -1.221   
    24.53       0.1004E-1    -1.219       0.3577E-1    -1.460       0.1004E-1    -1.219   
    24.59       0.9898E-2    -1.217       0.3482E-1    -1.453       0.9898E-2    -1.217   
    24.65       0.9760E-2    -1.215       0.3391E-1    -1.446       0.9760E-2    -1.215   
    24.71       0.9626E-2    -1.213       0.3304E-1    -1.440       0.9626E-2    -1.213   
    24.77       0.9495E-2    -1.211       0.3220E-1    -1.433       0.9495E-2    -1.211   
    24.82       0.9367E-2    -1.209       0.3140E-1    -1.427       0.9367E-2    -1.209   
    24.88       0.9241E-2    -1.207       0.3063E-1    -1.421       0.9241E-2    -1.207   
    24.94       0.9119E-2    -1.205       0.2989E-1    -1.415       0.9119E-2    -1.205   
    25.00       0.8999E-2    -1.204       0.2918E-1    -1.409       0.8999E-2    -1.204   
# 
# 02/17/2019 at 13:24 YAMBO @ VivoBook [start]
# 02/17/2019 at 13:24                  [end]
#  
# Timing   [Min/Max/Average]: 02s/02s/02s
#
# .-Input file : yambo.in
# | optics                         # [R OPT] Optics
# | bse                            # [R BSE] Bethe Salpeter Equation.
# | bss                            # [R BSS] Bethe Salpeter Equation solver
# | em1s                           # [R Xs] Static Inverse Dielectric Matrix
# | FFTGvecs=  749         RL      # [FFT] Plane-waves
# | X_Threads= 1                   # [OPENMP/X] Number of threads for response functions
# | DIP_Threads= 1                 # [OPENMP/X] Number of threads for dipoles
# | K_Threads= 1                   # [OPENMP/BSK] Number of threads for response functions
# | Chimod= "HARTREE"              # [X] IP/Hartree/ALDA/LRC/PF/BSfxc
# | BSEmod= "retarded"             # [BSE] resonant/retarded/coupling
# | BSKmod= "SEX"                  # [BSE] IP/Hartree/HF/ALDA/SEX/BSfxc
# | BSSmod= "h"                    # [BSS] (h)aydock/(d)iagonalization/(i)nversion/(t)ddft`
# | BSENGexx=  749         RL      # [BSK] Exchange components
# | BSENGBlk=  51          RL      # [BSK] Screened interaction block size
# | #WehCpl                        # [BSK] eh interaction included also in coupling
# | % KfnQP_E
# |  5.800000 | 1.000000 | 1.000000 |        # [EXTQP BSK BSS] E parameters  (c/v) eV|adim|adim
# | %
# | % BSEBands
# |   3 |  5 |                     # [BSK] Bands range
# | %
# | % BEnRange
# |   7.50000 | 25.00000 | eV      # [BSS] Energy range
# | %
# | % BDmRange
# |   0.10000 |  0.30000 | eV      # [BSS] Damping range
# | %
# | BEnSteps= 300                  # [BSS] Energy steps
# | % BLongDir
# | 0.1000E-4 | 0.000    | 0.000    |        # [BSS] [cc] Electric Field
# | %
# | BSHayTrs=   0.0050             # [BSS] Relative [o/o] Haydock threshold. Strict(>0)/Average(<0)
# | % BndsRnXs
# |   1 | 10 |                     # [Xs] Polarization function bands
# | %
# | NGsBlkXs=  51          RL      # [Xs] Response block size
# | % DmRngeXs
# | 0.1000E-2 |0.1000E-2 | eV      # [Xs] Damping range
# | %
# | % LongDrXs
# | 0.1000E-4 | 0.000    | 0.000    |        # [Xs] [cc] Electric Field
# | %
