#                                                           
#  /$$     /$$ /$$$$$$  /$$      /$$ /$$$$$$$   /$$$$$$     
# |  $$   /$$//$$__  $$| $$$    /$$$| $$__  $$ /$$__  $$    
#  \  $$ /$$/| $$  \ $$| $$$$  /$$$$| $$  \ $$| $$  \ $$    
#   \  $$$$/ | $$$$$$$$| $$ $$/$$ $$| $$$$$$$ | $$  | $$    
#    \  $$/  | $$__  $$| $$  $$$| $$| $$__  $$| $$  | $$    
#     | $$   | $$  | $$| $$\  $ | $$| $$  \ $$| $$  | $$    
#     | $$   | $$  | $$| $$ \/  | $$| $$$$$$$/|  $$$$$$/    
#     |__/   |__/  |__/|__/     |__/|_______/  \______/     
#                                                           
#      Version 4.4.0 Revision 16433 Hash 0b96e480c          
#                  MPI+SLK+OpenMP Build                     
#               http://www.yambo-code.org                   
#
# EELS @ Q(1)  [q->0 direction]:0.1000E-4  0.000     0.000   
#
#
# - Energies      are  E < ./02_QP_PPA/ndb.QP + E Fit
# - Wavefunctions are Teter 93(XC)
#
# - The Green`s function is Retarded -
# - Using the Length Gauge -
# - [r,Vnl] *is* included -
#
#   BSK|Identifier              :5177
#      |Dimension               :512
#      |Bands                   :3 - 5
#      |Exchange           [res]: yes
#      |Correlation        [res]: yes
#      |Kernel`s coupling       : no
#      |Exchange           [cpl]: no
#      |Correlation        [cpl]: no
#      |W interaction is bare   : no
#      |ALDA kernel in R-space  : no
#      |RL vectors    [exchange]:749
#      |RL vectors [correlation]:51
#      |E/h energy range    [ev]:-1.000000 - -1.000000
#      |Coupling range     [o/o]: 100.0000 -  100.0000
#    W |Interaction is diagonal : no
#      |Matrix size             :51
#      |Bands                   :1 - 10
#      |e/h energy range    [ev]:-1.000000 - -1.000000
#      |Poles              [o/o]: 100.0000
#      |RL vectors in the sum   :749
#      |[r,Vnl] included        : yes
#      |Field direction         :0.1000E-4  0.000000  0.000000
#      |Coulomb Cutoff          :none
#      |xc-Kernel               :none
#   RIM|RL components      [col]:0
#      |Random points      [col]:0
#  
#   Haydock|Accuracy (requested) [o/o]:   0.0050
#          |Accuracy (reached)   [o/o]:   0.0029
#          |Iteration                 :32
#
#    E/ev[1]      EEL-Im[2]    EEL-Re[3]    EELo-Im[4]   EELo-Re[5]   EEL`-Im[6]   EEL`-Re[7]
#
    7.500       0.2822E-2    -.6455       0.1263E-2    -.7304       0.2822E-2    -.6455   
    7.559       0.2892E-2    -.6439       0.1289E-2    -.7296       0.2892E-2    -.6439   
    7.617       0.2964E-2    -.6422       0.1315E-2    -.7289       0.2964E-2    -.6422   
    7.676       0.3037E-2    -.6405       0.1342E-2    -.7281       0.3037E-2    -.6405   
    7.734       0.3113E-2    -.6387       0.1369E-2    -.7273       0.3113E-2    -.6387   
    7.793       0.3191E-2    -.6369       0.1397E-2    -.7266       0.3191E-2    -.6369   
    7.851       0.3271E-2    -.6351       0.1425E-2    -.7258       0.3271E-2    -.6351   
    7.910       0.3353E-2    -.6332       0.1454E-2    -.7249       0.3353E-2    -.6332   
    7.968       0.3437E-2    -.6313       0.1484E-2    -.7241       0.3437E-2    -.6313   
    8.027       0.3524E-2    -.6294       0.1514E-2    -.7233       0.3524E-2    -.6294   
    8.085       0.3613E-2    -.6275       0.1544E-2    -.7225       0.3613E-2    -.6275   
    8.144       0.3705E-2    -.6255       0.1576E-2    -.7216       0.3705E-2    -.6255   
    8.202       0.3799E-2    -.6234       0.1607E-2    -.7207       0.3799E-2    -.6234   
    8.261       0.3896E-2    -.6213       0.1640E-2    -.7199       0.3896E-2    -.6213   
    8.319       0.3996E-2    -.6192       0.1673E-2    -.7190       0.3996E-2    -.6192   
    8.378       0.4098E-2    -.6171       0.1707E-2    -.7181       0.4098E-2    -.6171   
    8.436       0.4204E-2    -.6149       0.1741E-2    -.7172       0.4204E-2    -.6149   
    8.495       0.4313E-2    -.6126       0.1776E-2    -.7162       0.4313E-2    -.6126   
    8.554       0.4425E-2    -.6103       0.1812E-2    -.7153       0.4425E-2    -.6103   
    8.612       0.4541E-2    -.6080       0.1848E-2    -.7143       0.4541E-2    -.6080   
    8.671       0.4660E-2    -.6056       0.1885E-2    -.7134       0.4660E-2    -.6056   
    8.729       0.4783E-2    -.6032       0.1923E-2    -.7124       0.4783E-2    -.6032   
    8.788       0.4910E-2    -.6007       0.1962E-2    -.7114       0.4910E-2    -.6007   
    8.846       0.5041E-2    -.5982       0.2002E-2    -.7104       0.5041E-2    -.5982   
    8.905       0.5176E-2    -.5956       0.2042E-2    -.7094       0.5176E-2    -.5956   
    8.963       0.5316E-2    -.5930       0.2083E-2    -.7083       0.5316E-2    -.5930   
    9.022       0.5460E-2    -.5903       0.2125E-2    -.7073       0.5460E-2    -.5903   
    9.080       0.5609E-2    -.5875       0.2168E-2    -.7062       0.5609E-2    -.5875   
    9.139       0.5762E-2    -.5847       0.2212E-2    -.7051       0.5762E-2    -.5847   
    9.197       0.5922E-2    -.5819       0.2257E-2    -.7040       0.5922E-2    -.5819   
    9.256       0.6086E-2    -.5789       0.2302E-2    -.7029       0.6086E-2    -.5789   
    9.314       0.6257E-2    -.5759       0.2349E-2    -.7018       0.6257E-2    -.5759   
    9.373       0.6433E-2    -.5729       0.2397E-2    -.7007       0.6433E-2    -.5729   
    9.431       0.6616E-2    -.5698       0.2445E-2    -.6995       0.6616E-2    -.5698   
    9.490       0.6805E-2    -.5666       0.2495E-2    -.6983       0.6805E-2    -.5666   
    9.548       0.7002E-2    -.5633       0.2546E-2    -.6971       0.7002E-2    -.5633   
    9.607       0.7205E-2    -.5599       0.2598E-2    -.6959       0.7205E-2    -.5599   
    9.666       0.7417E-2    -.5565       0.2652E-2    -.6947       0.7417E-2    -.5565   
    9.724       0.7636E-2    -.5530       0.2706E-2    -.6934       0.7636E-2    -.5530   
    9.783       0.7865E-2    -.5494       0.2762E-2    -.6921       0.7865E-2    -.5494   
    9.841       0.8102E-2    -.5457       0.2819E-2    -.6908       0.8102E-2    -.5457   
    9.900       0.8348E-2    -.5419       0.2877E-2    -.6895       0.8348E-2    -.5419   
    9.958       0.8605E-2    -.5380       0.2936E-2    -.6882       0.8605E-2    -.5380   
    10.02       0.8873E-2    -.5341       0.2997E-2    -.6869       0.8873E-2    -.5341   
    10.08       0.9151E-2    -.5300       0.3060E-2    -.6855       0.9151E-2    -.5300   
    10.13       0.9442E-2    -.5258       0.3124E-2    -.6841       0.9442E-2    -.5258   
    10.19       0.9745E-2    -.5215       0.3189E-2    -.6827       0.9745E-2    -.5215   
    10.25       0.1006E-1    -.5171       0.3256E-2    -.6812       0.1006E-1    -.5171   
    10.31       0.1039E-1    -.5126       0.3325E-2    -.6798       0.1039E-1    -.5126   
    10.37       0.1074E-1    -.5079       0.3396E-2    -.6783       0.1074E-1    -.5079   
    10.43       0.1110E-1    -.5031       0.3468E-2    -.6768       0.1110E-1    -.5031   
    10.48       0.1148E-1    -.4982       0.3542E-2    -.6753       0.1148E-1    -.4982   
    10.54       0.1188E-1    -.4931       0.3618E-2    -.6737       0.1188E-1    -.4931   
    10.60       0.1230E-1    -.4879       0.3696E-2    -.6721       0.1230E-1    -.4879   
    10.66       0.1274E-1    -.4825       0.3776E-2    -.6705       0.1274E-1    -.4825   
    10.72       0.1321E-1    -.4770       0.3858E-2    -.6689       0.1321E-1    -.4770   
    10.78       0.1369E-1    -.4713       0.3942E-2    -.6672       0.1369E-1    -.4713   
    10.84       0.1421E-1    -.4654       0.4028E-2    -.6655       0.1421E-1    -.4654   
    10.89       0.1475E-1    -.4593       0.4117E-2    -.6638       0.1475E-1    -.4593   
    10.95       0.1533E-1    -.4530       0.4208E-2    -.6621       0.1533E-1    -.4530   
    11.01       0.1594E-1    -.4465       0.4302E-2    -.6603       0.1594E-1    -.4465   
    11.07       0.1658E-1    -.4397       0.4399E-2    -.6585       0.1658E-1    -.4397   
    11.13       0.1727E-1    -.4327       0.4498E-2    -.6566       0.1727E-1    -.4327   
    11.19       0.1800E-1    -.4255       0.4600E-2    -.6547       0.1800E-1    -.4255   
    11.25       0.1878E-1    -.4180       0.4705E-2    -.6528       0.1878E-1    -.4180   
    11.30       0.1962E-1    -.4102       0.4813E-2    -.6509       0.1962E-1    -.4102   
    11.36       0.2051E-1    -.4021       0.4925E-2    -.6489       0.2051E-1    -.4021   
    11.42       0.2147E-1    -.3936       0.5039E-2    -.6469       0.2147E-1    -.3936   
    11.48       0.2250E-1    -.3849       0.5158E-2    -.6448       0.2250E-1    -.3849   
    11.54       0.2361E-1    -.3757       0.5280E-2    -.6428       0.2361E-1    -.3757   
    11.60       0.2481E-1    -.3661       0.5406E-2    -.6406       0.2481E-1    -.3661   
    11.66       0.2612E-1    -.3561       0.5536E-2    -.6385       0.2612E-1    -.3561   
    11.71       0.2754E-1    -.3456       0.5670E-2    -.6362       0.2754E-1    -.3456   
    11.77       0.2909E-1    -.3345       0.5809E-2    -.6340       0.2909E-1    -.3345   
    11.83       0.3079E-1    -.3229       0.5952E-2    -.6317       0.3079E-1    -.3229   
    11.89       0.3266E-1    -.3107       0.6101E-2    -.6293       0.3266E-1    -.3107   
    11.95       0.3474E-1    -.2978       0.6255E-2    -.6269       0.3474E-1    -.2978   
    12.01       0.3705E-1    -.2842       0.6414E-2    -.6245       0.3705E-1    -.2842   
    12.07       0.3963E-1    -.2697       0.6579E-2    -.6220       0.3963E-1    -.2697   
    12.12       0.4254E-1    -.2542       0.6751E-2    -.6194       0.4254E-1    -.2542   
    12.18       0.4583E-1    -.2377       0.6929E-2    -.6168       0.4583E-1    -.2377   
    12.24       0.4960E-1    -.2201       0.7114E-2    -.6142       0.4960E-1    -.2201   
    12.30       0.5393E-1    -.2011       0.7306E-2    -.6114       0.5393E-1    -.2011   
    12.36       0.5898E-1    -.1806       0.7506E-2    -.6087       0.5898E-1    -.1806   
    12.42       0.6490E-1    -.1583       0.7715E-2    -.6058       0.6490E-1    -.1583   
    12.47       0.7195E-1    -.1339       0.7933E-2    -.6029       0.7195E-1    -.1339   
    12.53       0.8046E-1    -.1072       0.8160E-2    -.5999       0.8046E-1    -.1072   
    12.59       0.9087E-1    -.7768E-1    0.8398E-2    -.5969       0.9087E-1    -.7768E-1
    12.65       0.1038       -.4479E-1    0.8647E-2    -.5937       0.1038       -.4479E-1
    12.71       0.1203       -.7897E-2    0.8908E-2    -.5905       0.1203       -.7897E-2
    12.77       0.1418       0.3377E-1    0.9182E-2    -.5872       0.1418       0.3377E-1
    12.83       0.1704       0.8110E-1    0.9471E-2    -.5838       0.1704       0.8110E-1
    12.88       0.2097       0.1349       0.9775E-2    -.5803       0.2097       0.1349   
    12.94       0.2654       0.1956       0.1010E-1    -.5768       0.2654       0.1956   
    13.00       0.3469       0.2613       0.1044E-1    -.5731       0.3469       0.2613   
    13.06       0.4691       0.3244       0.1080E-1    -.5693       0.4691       0.3244   
    13.12       0.6513       0.3601       0.1118E-1    -.5654       0.6513       0.3601   
    13.18       0.8991       0.3085       0.1159E-1    -.5614       0.8991       0.3085   
    13.24        1.139       0.8362E-1    0.1203E-1    -.5572        1.139       0.8362E-1
    13.29        1.191       -.2845       0.1249E-1    -.5529        1.191       -.2845   
    13.35        1.006       -.5733       0.1300E-1    -.5485        1.006       -.5733   
    13.41137      0.75746     -0.67407      0.01355     -0.54390      0.75746     -0.67407
    13.46990      0.56112     -0.65531      0.01414     -0.53913      0.56112     -0.65531
    13.52843      0.42963     -0.59036      0.01479     -0.53417      0.42963     -0.59036
    13.58696      0.34539     -0.51339      0.01550     -0.52900      0.34539     -0.51339
    13.64548      0.29211     -0.43621      0.01629     -0.52362      0.29211     -0.43621
    13.70401      0.25915     -0.36186      0.01716     -0.51798      0.25915     -0.36186
    13.76254      0.24017     -0.29024      0.01815     -0.51207      0.24017     -0.29024
    13.82107      0.23155     -0.22027      0.01926     -0.50586      0.23155     -0.22027
    13.87960      0.23138     -0.15058      0.02053     -0.49930      0.23138     -0.15058
    13.93813      0.23895     -0.07972      0.02200     -0.49236      0.23895     -0.07972
    14.00       0.2545       -.6242E-2    0.2373E-1    -.4850       0.2545       -.6242E-2
    14.05518      0.27937      0.07128      0.02578     -0.47710      0.27937      0.07128
    14.11371      0.31599      0.15423      0.02826     -0.46864      0.31599      0.15423
    14.17224      0.36868      0.24358      0.03132     -0.45950      0.36868      0.24358
    14.23077      0.44451      0.33916      0.03517     -0.44959      0.44451      0.33916
    14.28930      0.55462      0.43738      0.04013     -0.43878      0.55462      0.43738
    14.34783      0.71496      0.52577      0.04670     -0.42699      0.71496      0.52577
    14.40635      0.94127      0.57142      0.05564     -0.41418      0.94127      0.57142
    14.46488      1.22189      0.50876      0.06816     -0.40060      1.22189      0.50876
    14.52341      1.45959      0.27546      0.08609     -0.38720      1.45959      0.27546
    14.58194      1.50061     -0.05319      0.11181     -0.37668      1.50061     -0.05319
    14.64047      1.35184     -0.28005      0.14681     -0.37542      1.35184     -0.28005
    14.69900      1.17172     -0.34233      0.18601     -0.39413      1.17172     -0.34233
    14.75752      1.04769     -0.31302      0.21031     -0.43785      1.04769     -0.31302
    14.81605      0.97191     -0.25126      0.20055     -0.48715      0.97191     -0.25126
    14.87458      0.92764     -0.16033      0.16679     -0.51510      0.92764     -0.16032
    14.93311      0.93071     -0.03591      0.13165     -0.51895      0.93072     -0.03592
    14.99164      1.00400      0.10509      0.10498     -0.50925      1.00399      0.10506
    15.05017      1.16447      0.23309      0.08689     -0.49408      1.16443      0.23311
    15.10869      1.42422      0.29971      0.07514     -0.47723      1.42425      0.29978
    15.16722      1.76242      0.22092      0.06773     -0.46010      1.76253      0.22088
    15.22575      2.05698     -0.08258      0.06332     -0.44309      2.05692     -0.08274
    15.28428      2.11324     -0.53154      0.06109     -0.42620      2.11305     -0.53145
    15.34281      1.90803     -0.88915      0.06054     -0.40931      1.90814     -0.88894
    15.40134      1.60928     -1.04330      0.06144     -0.39221      1.60949     -1.04341
    15.45986      1.34240     -1.03647      0.06370     -0.37471      1.34233     -1.03666
    15.51839      1.15284     -0.93281      0.06739     -0.35661      1.15266     -0.93281
    15.57692      1.05021     -0.78241      0.07277     -0.33772      1.05014     -0.78225
    15.63545      1.02993     -0.61966      0.08027     -0.31792      1.03004     -0.61952
    15.69398      1.08464     -0.47007      0.09061     -0.29725      1.08485     -0.47010
    15.75251      1.20197     -0.35733      0.10486     -0.27610      1.20203     -0.35759
    15.81104      1.36045     -0.29472      0.12433     -0.25575      1.36017     -0.29491
    15.86957      1.55260     -0.27958      0.15002     -0.23902      1.55230     -0.27932
    15.92809      1.79382     -0.33989      0.18072     -0.23058      1.79401     -0.33947
    15.98662      2.04303     -0.55424      0.21017     -0.23481      2.04353     -0.55431
    16.04515      2.14847     -0.93421      0.22725     -0.24874      2.14853     -0.93474
    16.10368      2.00215     -1.31099      0.22774     -0.25814      2.00166     -1.31120
    16.16220      1.70747     -1.50936      0.22247     -0.25209      1.70711     -1.50898
    16.22073      1.42588     -1.52958      0.22402     -0.23319      1.42608     -1.52911
    16.27926      1.22276     -1.45607      0.23710     -0.20935      1.22330     -1.45608
    16.33779      1.08922     -1.35101      0.26108     -0.18624      1.08941     -1.35152
    16.39632      1.00033     -1.23206      0.29595     -0.16615      0.99994     -1.23243
    16.45485      0.95023     -1.09504      0.34518     -0.15448      0.94974     -1.09487
    16.51338      0.94829     -0.94187      0.40743     -0.16547      0.94818     -0.94135
    16.57191      1.00474     -0.78297      0.46329     -0.21379      1.00517     -0.78255
    16.63043      1.12985     -0.63382      0.47922     -0.28889      1.13059     -0.63401
    16.68896      1.33444     -0.52024      0.44599     -0.35006      1.33464     -0.52128
    16.74749      1.62009     -0.48697      0.39262     -0.37078      1.61874     -0.48770
    16.80602      1.95577     -0.59569      0.34842     -0.35770      1.95453     -0.59397
    16.86455      2.25135     -0.89604      0.32372     -0.32809      2.25343     -0.89447
    16.92308      2.36220     -1.35336      0.31680     -0.29493      2.36380     -1.35562
    16.98161      2.20944     -1.79508      0.32168     -0.26390      2.20733     -1.79655
    17.04013      1.89730     -2.05817      0.33491     -0.23453      1.89598     -2.05644
    17.09866      1.57994     -2.13771      0.35849     -0.20756      1.58121     -2.13653
    17.15719      1.32580     -2.10512      0.39262     -0.18990      1.32682     -2.10591
    17.21572      1.14385     -2.01348      0.42836     -0.18720      1.14348     -2.01434
    17.27425      1.03253     -1.89273      0.45510     -0.19234      1.03182     -1.89268
    17.33278      0.99027     -1.76574      0.47765     -0.19232      0.99008     -1.76519
    17.39130      1.01494     -1.65474      0.51172     -0.18974      1.01534     -1.65442
    17.44983      1.10091     -1.58709      0.56153     -0.20471      1.10130     -1.58738
    17.50836      1.22722     -1.59740      0.60650     -0.25622      1.22700     -1.59779
    17.56689      1.34169     -1.71163      0.61090     -0.33463      1.34137     -1.71145
    17.62542      1.36957     -1.90849      0.56347     -0.39883      1.36970     -1.90828
    17.68395      1.27425     -2.10525      0.49186     -0.41962      1.27436     -2.10533
    17.74247      1.09886     -2.22727      0.42689     -0.40074      1.09883     -2.22733
    17.80100      0.90893     -2.26434      0.38147     -0.35818      0.90891     -2.26434
    17.85953      0.74126     -2.24060      0.35696     -0.30436      0.74125     -2.24059
    17.91806      0.60766     -2.18216      0.35169     -0.24646      0.60766     -2.18215
    17.97659      0.50699     -2.10829      0.36457     -0.18921      0.50699     -2.10829
    18.03512      0.43307     -2.03029      0.39537     -0.13775      0.43307     -2.03029
    18.09364      0.37944     -1.95350      0.44258     -0.09992      0.37944     -1.95350
    18.15217      0.34105     -1.87991      0.49846     -0.08565      0.34105     -1.87991
    18.21070      0.31446     -1.80991      0.54509     -0.09852      0.31446     -1.80991
    18.26923      0.29752     -1.74324      0.56490     -0.12440      0.29752     -1.74324
    18.32776      0.28907     -1.67946      0.55948     -0.14100      0.28907     -1.67946
    18.38629      0.28871     -1.61831      0.54303     -0.13963      0.28871     -1.61831
    18.44481      0.29653     -1.55998      0.52402     -0.12192      0.29653     -1.55998
    18.50334      0.31250     -1.50522      0.50654     -0.08840      0.31250     -1.50521
    18.56187      0.33585     -1.45474      0.49547     -0.03962      0.33585     -1.45474
    18.62040      0.36564     -1.40762      0.49500      0.02195      0.36564     -1.40762
    18.67893      0.40387     -1.36130      0.50718      0.09334      0.40387     -1.36130
    18.73746      0.45711     -1.31586      0.53269      0.17343      0.45711     -1.31586
    18.79598      0.53339     -1.27819      0.57400      0.26317      0.53339     -1.27819
    18.85451      0.63725     -1.26327      0.63662      0.36277      0.63726     -1.26327
    18.91304      0.76262     -1.29375      0.72799      0.47021      0.76262     -1.29377
    18.97157      0.88208     -1.39122      0.85747      0.58075      0.88207     -1.39121
    19.03010      0.94758     -1.55113      1.03711      0.68487      0.94759     -1.55112
    19.08863      0.92571     -1.72602      1.28096      0.76303      0.92572     -1.72603
    19.14716      0.83318     -1.86090      1.59833      0.77775      0.83317     -1.86090
    19.20568      0.71210     -1.93714      1.97385      0.66877      0.71210     -1.93713
    19.26421      0.59257     -1.96363      2.33281      0.37397      0.59257     -1.96363
    19.32274      0.48941     -1.95529      2.53593     -0.09692      0.48941     -1.95529
    19.38127      0.40801     -1.92657      2.48139     -0.60252      0.40801     -1.92657
    19.43980      0.34744     -1.88880      2.22351     -0.97067      0.34744     -1.88880
    19.49833      0.30390     -1.84898      1.90761     -1.14732      0.30390     -1.84898
    19.55686      0.27350     -1.81065      1.63579     -1.18464      0.27350     -1.81065
    19.61539      0.25337     -1.77579      1.43589     -1.15575      0.25337     -1.77579
    19.67391      0.24093     -1.74589      1.29050     -1.10970      0.24093     -1.74589
    19.73244      0.23348     -1.72179      1.16956     -1.06005      0.23348     -1.72179
    19.79097      0.22840     -1.70335      1.05813     -0.99540      0.22840     -1.70335
    19.84950      0.22370     -1.68932      0.96240     -0.90530      0.22370     -1.68932
    19.90803      0.21910     -1.67806      0.89331     -0.79208      0.21910     -1.67806
    19.96655      0.21550     -1.66980      0.85608     -0.66381      0.21550     -1.66980
    20.02508      0.21178     -1.66663      0.85156     -0.52732      0.21178     -1.66663
    20.08361      0.20369     -1.66862      0.88015     -0.38716      0.20369     -1.66862
    20.14214      0.18801     -1.67122      0.94380     -0.24730      0.18801     -1.67122
    20.20067      0.16669     -1.66891      1.04627     -0.11361      0.16669     -1.66891
    20.26       0.1445       -1.660        1.191       0.3428E-2    0.1445       -1.660   
    20.31772      0.12490     -1.64652      1.37759      0.08736      0.12490     -1.64652
    20.37625      0.10877     -1.63057      1.59128      0.12090      0.10877     -1.63057
    20.43478      0.09590     -1.61394      1.80676      0.10117      0.09590     -1.61394
    20.49331      0.08564     -1.59752      2.00948      0.04774      0.08564     -1.59752
    20.55184      0.07737     -1.58175      2.21489     -0.02546      0.07737     -1.58175
    20.61037      0.07061     -1.56678      2.43997     -0.14094      0.07061     -1.56678
    20.66890      0.06501     -1.55265      2.66004     -0.33535      0.06501     -1.55265
    20.72742      0.06028     -1.53932      2.81709     -0.60604      0.06028     -1.53932
    20.78595      0.05624     -1.52675      2.87541     -0.90082      0.05624     -1.52675
    20.84448      0.05274     -1.51488      2.84741     -1.16106      0.05274     -1.51488
    20.90301      0.04968     -1.50363      2.77724     -1.34986      0.04968     -1.50363
    20.96154      0.04698     -1.49297      2.72761     -1.46589      0.04698     -1.49297
    21.02007      0.04457     -1.48284      2.75133     -1.55766      0.04457     -1.48284
    21.07859      0.04241     -1.47320      2.85130     -1.70795      0.04241     -1.47320
    21.13712      0.04046     -1.46399      2.95886     -1.98786      0.04046     -1.46399
    21.19565      0.03868     -1.45520      2.95526     -2.39250      0.03868     -1.45520
    21.25418      0.03706     -1.44678      2.76086     -2.81397      0.03706     -1.44678
    21.31271      0.03557     -1.43871      2.41208     -3.12369      0.03557     -1.43871
    21.37123      0.03419     -1.43097      2.01345     -3.27433      0.03419     -1.43097
    21.42976      0.03292     -1.42352      1.64656     -3.29618      0.03292     -1.42352
    21.48829      0.03174     -1.41636      1.34297     -3.24035      0.03174     -1.41636
    21.54682      0.03064     -1.40945      1.10325     -3.14670      0.03064     -1.40945
    21.60535      0.02961     -1.40280      0.91683     -3.03915      0.02961     -1.40280
    21.66388      0.02865     -1.39637      0.77173     -2.93027      0.02865     -1.39637
    21.72241      0.02774     -1.39016      0.65781     -2.82600      0.02774     -1.39016
    21.78094      0.02689     -1.38415      0.56731     -2.72877      0.02689     -1.38415
    21.83946      0.02609     -1.37833      0.49448     -2.63929      0.02609     -1.37833
    21.89799      0.02533     -1.37270      0.43513     -2.55742      0.02533     -1.37270
    21.95652      0.02461     -1.36724      0.38618     -2.48264      0.02461     -1.36724
    22.01505      0.02393     -1.36194      0.34535     -2.41435      0.02393     -1.36194
    22.07358      0.02329     -1.35680      0.31093     -2.35185      0.02329     -1.35680
    22.13210      0.02267     -1.35180      0.28165     -2.29453      0.02267     -1.35180
    22.19       0.2209E-1    -1.347       0.2565       -2.242       0.2209E-1    -1.347   
    22.25       0.2153E-1    -1.342       0.2348       -2.193       0.2153E-1    -1.342   
    22.31       0.2100E-1    -1.338       0.2159       -2.148       0.2100E-1    -1.338   
    22.37       0.2049E-1    -1.333       0.1993       -2.107       0.2049E-1    -1.333   
    22.42       0.2000E-1    -1.329       0.1846       -2.068       0.2000E-1    -1.329   
    22.48       0.1953E-1    -1.325       0.1717       -2.032       0.1953E-1    -1.325   
    22.54       0.1909E-1    -1.320       0.1601       -1.998       0.1909E-1    -1.320   
    22.60       0.1866E-1    -1.316       0.1497       -1.967       0.1866E-1    -1.316   
    22.66       0.1825E-1    -1.312       0.1404       -1.937       0.1825E-1    -1.312   
    22.72       0.1785E-1    -1.309       0.1319       -1.909       0.1785E-1    -1.309   
    22.78       0.1747E-1    -1.305       0.1243       -1.883       0.1747E-1    -1.305   
    22.83       0.1710E-1    -1.301       0.1174       -1.859       0.1710E-1    -1.301   
    22.89       0.1675E-1    -1.298       0.1110       -1.835       0.1675E-1    -1.298   
    22.95       0.1641E-1    -1.294       0.1052       -1.813       0.1641E-1    -1.294   
    23.01       0.1608E-1    -1.291       0.9987E-1    -1.792       0.1608E-1    -1.291   
    23.07       0.1577E-1    -1.287       0.9496E-1    -1.772       0.1577E-1    -1.287   
    23.13       0.1546E-1    -1.284       0.9043E-1    -1.753       0.1546E-1    -1.284   
    23.19       0.1517E-1    -1.281       0.8624E-1    -1.735       0.1517E-1    -1.281   
    23.24       0.1488E-1    -1.278       0.8235E-1    -1.718       0.1488E-1    -1.278   
    23.30       0.1460E-1    -1.275       0.7874E-1    -1.702       0.1460E-1    -1.275   
    23.36       0.1434E-1    -1.272       0.7538E-1    -1.686       0.1434E-1    -1.272   
    23.42       0.1408E-1    -1.269       0.7225E-1    -1.671       0.1408E-1    -1.269   
    23.48       0.1383E-1    -1.266       0.6932E-1    -1.657       0.1383E-1    -1.266   
    23.54       0.1358E-1    -1.263       0.6658E-1    -1.643       0.1358E-1    -1.263   
    23.60       0.1335E-1    -1.260       0.6401E-1    -1.630       0.1335E-1    -1.260   
    23.65       0.1312E-1    -1.258       0.6159E-1    -1.617       0.1312E-1    -1.258   
    23.71       0.1290E-1    -1.255       0.5932E-1    -1.605       0.1290E-1    -1.255   
    23.77       0.1268E-1    -1.252       0.5718E-1    -1.593       0.1268E-1    -1.252   
    23.83       0.1247E-1    -1.250       0.5517E-1    -1.582       0.1247E-1    -1.250   
    23.89       0.1227E-1    -1.247       0.5327E-1    -1.571       0.1227E-1    -1.247   
    23.95       0.1207E-1    -1.245       0.5147E-1    -1.560       0.1207E-1    -1.245   
    24.01       0.1188E-1    -1.242       0.4976E-1    -1.550       0.1188E-1    -1.242   
    24.06       0.1169E-1    -1.240       0.4815E-1    -1.541       0.1169E-1    -1.240   
    24.12       0.1151E-1    -1.238       0.4662E-1    -1.531       0.1151E-1    -1.238   
    24.18       0.1133E-1    -1.235       0.4517E-1    -1.522       0.1133E-1    -1.235   
    24.24       0.1116E-1    -1.233       0.4379E-1    -1.513       0.1116E-1    -1.233   
    24.30       0.1099E-1    -1.231       0.4247E-1    -1.505       0.1099E-1    -1.231   
    24.36       0.1082E-1    -1.229       0.4122E-1    -1.496       0.1082E-1    -1.229   
    24.41       0.1066E-1    -1.227       0.4003E-1    -1.488       0.1066E-1    -1.227   
    24.47       0.1051E-1    -1.224       0.3889E-1    -1.480       0.1051E-1    -1.224   
    24.53       0.1036E-1    -1.222       0.3780E-1    -1.473       0.1036E-1    -1.222   
    24.59       0.1021E-1    -1.220       0.3677E-1    -1.466       0.1021E-1    -1.220   
    24.65       0.1006E-1    -1.218       0.3577E-1    -1.458       0.1006E-1    -1.218   
    24.71       0.9922E-2    -1.216       0.3482E-1    -1.452       0.9922E-2    -1.216   
    24.77       0.9784E-2    -1.214       0.3391E-1    -1.445       0.9784E-2    -1.214   
    24.82       0.9649E-2    -1.213       0.3304E-1    -1.438       0.9649E-2    -1.213   
    24.88       0.9518E-2    -1.211       0.3220E-1    -1.432       0.9518E-2    -1.211   
    24.94       0.9389E-2    -1.209       0.3140E-1    -1.426       0.9389E-2    -1.209   
    25.00       0.9264E-2    -1.207       0.3063E-1    -1.420       0.9264E-2    -1.207   
# 
# 02/17/2019 at 13:24 YAMBO @ VivoBook [start]
# 02/17/2019 at 13:24                  [end]
#  
# Timing   [Min/Max/Average]: 07s/07s/07s
#
# .-Input file : yambo.in
# | optics                         # [R OPT] Optics
# | bse                            # [R BSE] Bethe Salpeter Equation.
# | bss                            # [R BSS] Bethe Salpeter Equation solver
# | em1s                           # [R Xs] Static Inverse Dielectric Matrix
# | BoseTemp= 0.000000     eV      # Bosonic Temperature
# | FFTGvecs=  749         RL      # [FFT] Plane-waves
# | X_Threads= 1                   # [OPENMP/X] Number of threads for response functions
# | DIP_Threads= 1                 # [OPENMP/X] Number of threads for dipoles
# | K_Threads= 1                   # [OPENMP/BSK] Number of threads for response functions
# | Chimod= "HARTREE"              # [X] IP/Hartree/ALDA/LRC/PF/BSfxc
# | BSEmod= "retarded"             # [BSE] resonant/retarded/coupling
# | BSKmod= "SEX"                  # [BSE] IP/Hartree/HF/ALDA/SEX/BSfxc
# | BSSmod= "h"                    # [BSS] (h)aydock/(d)iagonalization/(i)nversion/(t)ddft`
# | BSENGexx=  749         RL      # [BSK] Exchange components
# | BSENGBlk=  51          RL      # [BSK] Screened interaction block size
# | #WehCpl                        # [BSK] eh interaction included also in coupling
# | KfnQPdb= "E < ./02_QP_PPA/ndb.QP" # [EXTQP BSK BSS] Database
# | % BSEBands
# |   3 |  5 |                     # [BSK] Bands range
# | %
# | % BEnRange
# |   7.50000 | 25.00000 | eV      # [BSS] Energy range
# | %
# | % BDmRange
# |   0.10000 |  0.30000 | eV      # [BSS] Damping range
# | %
# | BEnSteps= 300                  # [BSS] Energy steps
# | % BLongDir
# | 0.1000E-4 | 0.000    | 0.000    |        # [BSS] [cc] Electric Field
# | %
# | BSHayTrs=   0.0050             # [BSS] Relative [o/o] Haydock threshold. Strict(>0)/Average(<0)
# | % BndsRnXs
# |   1 | 10 |                     # [Xs] Polarization function bands
# | %
# | NGsBlkXs=  51          RL      # [Xs] Response block size
# | % DmRngeXs
# | 0.1000E-2 |0.1000E-2 | eV      # [Xs] Damping range
# | %
# | % LongDrXs
# | 0.1000E-4 | 0.000    | 0.000    |        # [Xs] [cc] Electric Field
# | %
