#                                                           
#  /$$     /$$ /$$$$$$  /$$      /$$ /$$$$$$$   /$$$$$$     
# |  $$   /$$//$$__  $$| $$$    /$$$| $$__  $$ /$$__  $$    
#  \  $$ /$$/| $$  \ $$| $$$$  /$$$$| $$  \ $$| $$  \ $$    
#   \  $$$$/ | $$$$$$$$| $$ $$/$$ $$| $$$$$$$ | $$  | $$    
#    \  $$/  | $$__  $$| $$  $$$| $$| $$__  $$| $$  | $$    
#     | $$   | $$  | $$| $$\  $ | $$| $$  \ $$| $$  | $$    
#     | $$   | $$  | $$| $$ \/  | $$| $$$$$$$/|  $$$$$$/    
#     |__/   |__/  |__/|__/     |__/|_______/  \______/     
#                                                           
#      Version 4.4.0 Revision 16433 Hash 0b96e480c          
#                  MPI+SLK+OpenMP Build                     
#               http://www.yambo-code.org                   
#
# Absorption @ Q(1) [q->0 direction] :0.1000E-4  0.000     0.000   
#
#
# - Energies      are  E < ./02_QP_PPA/ndb.QP + E Fit
# - Wavefunctions are Teter 93(XC)
#
# - The Green`s function is Retarded -
# - Using the Length Gauge -
# - [r,Vnl] *is* included -
#
#   BSK|Identifier              :5177
#      |Dimension               :512
#      |Bands                   :3 - 5
#      |Exchange           [res]: yes
#      |Correlation        [res]: yes
#      |Kernel`s coupling       : no
#      |Exchange           [cpl]: no
#      |Correlation        [cpl]: no
#      |W interaction is bare   : no
#      |ALDA kernel in R-space  : no
#      |RL vectors    [exchange]:749
#      |RL vectors [correlation]:51
#      |E/h energy range    [ev]:-1.000000 - -1.000000
#      |Coupling range     [o/o]: 100.0000 -  100.0000
#    W |Interaction is diagonal : no
#      |Matrix size             :51
#      |Bands                   :1 - 10
#      |e/h energy range    [ev]:-1.000000 - -1.000000
#      |Poles              [o/o]: 100.0000
#      |RL vectors in the sum   :749
#      |[r,Vnl] included        : yes
#      |Field direction         :0.1000E-4  0.000000  0.000000
#      |Coulomb Cutoff          :none
#      |xc-Kernel               :none
#   RIM|RL components      [col]:0
#      |Random points      [col]:0
#  
#   Haydock|Accuracy (requested) [o/o]:   0.0050
#          |Accuracy (reached)   [o/o]:   0.0029
#          |Iteration                 :32
#
#    E/ev[1]      EPS-Im[2]    EPS-Re[3]    EPSo-Im[4]   EPSo-Re[5]   EPS`-Im[6]   EPS`-Re[7]
#
    7.500       0.6771E-2     1.549       0.2367E-2     1.369       0.6771E-2     1.549   
    7.559       0.6975E-2     1.553       0.2421E-2     1.371       0.6975E-2     1.553   
    7.617       0.7186E-2     1.557       0.2475E-2     1.372       0.7186E-2     1.557   
    7.676       0.7405E-2     1.561       0.2531E-2     1.373       0.7405E-2     1.561   
    7.734       0.7631E-2     1.566       0.2588E-2     1.375       0.7631E-2     1.566   
    7.793       0.7866E-2     1.570       0.2646E-2     1.376       0.7866E-2     1.570   
    7.851       0.8109E-2     1.575       0.2706E-2     1.378       0.8109E-2     1.575   
    7.910       0.8361E-2     1.579       0.2767E-2     1.379       0.8361E-2     1.579   
    7.968       0.8623E-2     1.584       0.2830E-2     1.381       0.8623E-2     1.584   
    8.027       0.8895E-2     1.589       0.2894E-2     1.383       0.8895E-2     1.589   
    8.085       0.9177E-2     1.594       0.2959E-2     1.384       0.9177E-2     1.594   
    8.144       0.9470E-2     1.599       0.3026E-2     1.386       0.9470E-2     1.599   
    8.202       0.9774E-2     1.604       0.3094E-2     1.387       0.9774E-2     1.604   
    8.261       0.1009E-1     1.609       0.3164E-2     1.389       0.1009E-1     1.609   
    8.319       0.1042E-1     1.615       0.3236E-2     1.391       0.1042E-1     1.615   
    8.378       0.1076E-1     1.620       0.3310E-2     1.393       0.1076E-1     1.620   
    8.436       0.1112E-1     1.626       0.3385E-2     1.394       0.1112E-1     1.626   
    8.495       0.1149E-1     1.632       0.3462E-2     1.396       0.1149E-1     1.632   
    8.554       0.1188E-1     1.638       0.3541E-2     1.398       0.1188E-1     1.638   
    8.612       0.1228E-1     1.645       0.3622E-2     1.400       0.1228E-1     1.645   
    8.671       0.1271E-1     1.651       0.3705E-2     1.402       0.1271E-1     1.651   
    8.729       0.1315E-1     1.658       0.3790E-2     1.404       0.1315E-1     1.658   
    8.788       0.1361E-1     1.665       0.3877E-2     1.406       0.1361E-1     1.665   
    8.846       0.1409E-1     1.672       0.3966E-2     1.408       0.1409E-1     1.672   
    8.905       0.1459E-1     1.679       0.4058E-2     1.410       0.1459E-1     1.679   
    8.963       0.1512E-1     1.686       0.4152E-2     1.412       0.1512E-1     1.686   
    9.022       0.1567E-1     1.694       0.4248E-2     1.414       0.1567E-1     1.694   
    9.080       0.1625E-1     1.702       0.4347E-2     1.416       0.1625E-1     1.702   
    9.139       0.1685E-1     1.710       0.4448E-2     1.418       0.1685E-1     1.710   
    9.197       0.1749E-1     1.718       0.4553E-2     1.420       0.1749E-1     1.718   
    9.256       0.1816E-1     1.727       0.4660E-2     1.423       0.1816E-1     1.727   
    9.314       0.1886E-1     1.736       0.4769E-2     1.425       0.1886E-1     1.736   
    9.373       0.1960E-1     1.745       0.4882E-2     1.427       0.1960E-1     1.745   
    9.431       0.2038E-1     1.755       0.4998E-2     1.430       0.2038E-1     1.755   
    9.490       0.2120E-1     1.765       0.5117E-2     1.432       0.2120E-1     1.765   
    9.548       0.2206E-1     1.775       0.5239E-2     1.434       0.2206E-1     1.775   
    9.607       0.2298E-1     1.786       0.5365E-2     1.437       0.2298E-1     1.786   
    9.666       0.2395E-1     1.797       0.5495E-2     1.440       0.2395E-1     1.797   
    9.724       0.2497E-1     1.808       0.5628E-2     1.442       0.2497E-1     1.808   
    9.783       0.2605E-1     1.820       0.5765E-2     1.445       0.2605E-1     1.820   
    9.841       0.2720E-1     1.832       0.5905E-2     1.447       0.2720E-1     1.832   
    9.900       0.2842E-1     1.845       0.6050E-2     1.450       0.2842E-1     1.845   
    9.958       0.2972E-1     1.858       0.6200E-2     1.453       0.2972E-1     1.858   
    10.02       0.3110E-1     1.872       0.6354E-2     1.456       0.3110E-1     1.872   
    10.08       0.3257E-1     1.886       0.6512E-2     1.459       0.3257E-1     1.886   
    10.13       0.3414E-1     1.901       0.6675E-2     1.462       0.3414E-1     1.901   
    10.19       0.3582E-1     1.917       0.6843E-2     1.465       0.3582E-1     1.917   
    10.25       0.3762E-1     1.933       0.7017E-2     1.468       0.3762E-1     1.933   
    10.31       0.3955E-1     1.950       0.7196E-2     1.471       0.3955E-1     1.950   
    10.37       0.4161E-1     1.968       0.7380E-2     1.474       0.4161E-1     1.968   
    10.43       0.4384E-1     1.987       0.7571E-2     1.478       0.4384E-1     1.987   
    10.48       0.4624E-1     2.006       0.7768E-2     1.481       0.4624E-1     2.006   
    10.54       0.4884E-1     2.027       0.7971E-2     1.484       0.4884E-1     2.027   
    10.60       0.5164E-1     2.048       0.8181E-2     1.488       0.5164E-1     2.048   
    10.66       0.5469E-1     2.071       0.8398E-2     1.491       0.5469E-1     2.071   
    10.72       0.5800E-1     2.095       0.8622E-2     1.495       0.5800E-1     2.095   
    10.78       0.6161E-1     2.120       0.8855E-2     1.499       0.6161E-1     2.120   
    10.84       0.6555E-1     2.147       0.9095E-2     1.503       0.6555E-1     2.147   
    10.89       0.6987E-1     2.175       0.9344E-2     1.506       0.6987E-1     2.175   
    10.95       0.7462E-1     2.205       0.9601E-2     1.510       0.7462E-1     2.205   
    11.01       0.7986E-1     2.237       0.9868E-2     1.514       0.7986E-1     2.237   
    11.07       0.8565E-1     2.271       0.1014E-1     1.519       0.8565E-1     2.271   
    11.13       0.9208E-1     2.307       0.1043E-1     1.523       0.9208E-1     2.307   
    11.19       0.9926E-1     2.346       0.1073E-1     1.527       0.9926E-1     2.346   
    11.25       0.1073        2.388       0.1104E-1     1.532       0.1073        2.388   
    11.30435      0.11632      2.43231      0.01136      1.53626      0.11632      2.43231
    11.36288      0.12652      2.48059      0.01169      1.54094      0.12652      2.48059
    11.42140      0.13812      2.53282      0.01204      1.54574      0.13812      2.53282
    11.47993      0.15137      2.58955      0.01240      1.55065      0.15137      2.58955
    11.53846      0.16662      2.65138      0.01278      1.55569      0.16662      2.65138
    11.59699      0.18427      2.71905      0.01317      1.56086      0.18427      2.71905
    11.65552      0.20488      2.79343      0.01358      1.56616      0.20488      2.79343
    11.71405      0.22914      2.87559      0.01401      1.57160      0.22914      2.87559
    11.77257      0.25796      2.96682      0.01445      1.57719      0.25796      2.96682
    11.83110      0.29258      3.06870      0.01492      1.58294      0.29258      3.06870
    11.88963      0.33464      3.18320      0.01540      1.58884      0.33464      3.18320
    11.94816      0.38643      3.31275      0.01591      1.59490      0.38643      3.31275
    12.00669      0.45117      3.46041      0.01645      1.60114      0.45117      3.46041
    12.06522      0.53350      3.63003      0.01700      1.60756      0.53350      3.63003
    12.12375      0.64025      3.82640      0.01759      1.61417      0.64025      3.82640
    12.18227      0.78182      4.05542      0.01821      1.62098      0.78182      4.05542
    12.24080      0.97442      4.32401      0.01886      1.62800      0.97442      4.32401
    12.29933      1.24422      4.63912      0.01954      1.63524      1.24422      4.63912
    12.35786      1.63450      5.00429      0.02026      1.64271      1.63450      5.00429
    12.41639      2.21787      5.40860      0.02102      1.65041      2.21787      5.40860
    12.47492      3.11245      5.79387      0.02182      1.65838      3.11245      5.79387
    12.53344      4.47746      5.96689      0.02267      1.66661      4.47746      5.96689
    12.59197      6.35864      5.43563      0.02357      1.67513      6.35864      5.43563
    12.65050      8.11996      3.50215      0.02453      1.68395      8.11996      3.50215
    12.70903      8.27513      0.54311      0.02554      1.69309      8.27513      0.54311
    12.76756      6.67518     -1.59004      0.02662      1.70257      6.67518     -1.59004
    12.82609      4.78527     -2.27784      0.02778      1.71241      4.78527     -2.27784
    12.88461      3.37264     -2.17054      0.02902      1.72264      3.37264     -2.17054
    12.94314      2.44190     -1.79974      0.03034      1.73327      2.44190     -1.79974
    13.00167      1.83900     -1.38550      0.03176      1.74435      1.83900     -1.38550
    13.06020      1.44226     -0.99729      0.03330      1.75590      1.44226     -0.99729
    13.11873      1.17591     -0.65008      0.03496      1.76795      1.17591     -0.65008
    13.17726      0.99503     -0.34141      0.03675      1.78056      0.99503     -0.34141
    13.23579      0.87304     -0.06408      0.03871      1.79375      0.87304     -0.06408
    13.29431      0.79436      0.18975      0.04084      1.80759      0.79436      0.18975
    13.35284      0.75024      0.42743      0.04318      1.82212      0.75024      0.42743
    13.41137      0.73674      0.65563      0.04576      1.83743      0.73674      0.65563
    13.46990      0.75391      0.88046      0.04861      1.85357      0.75391      0.88046
    13.52843      0.80589      1.10740      0.05179      1.87063      0.80589      1.10740
    13.58696      0.90213      1.34093      0.05534      1.88872      0.90213      1.34093
    13.64548      1.05986      1.58273      0.05935      1.90795      1.05986      1.58273
    13.70401      1.30817      1.82665      0.06390      1.92845      1.30817      1.82665
    13.76254      1.69227      2.04506      0.06911      1.95040      1.69227      2.04506
    13.82107      2.26710      2.15667      0.07515      1.97398      2.26710      2.15667
    13.87960      3.03610      1.97581      0.08221      1.99941      3.03610      1.97581
    13.93813      3.76584      1.25630      0.09058      2.02697      3.76584      1.25630
    13.99666      3.92645      0.09629      0.10064      2.05700      3.92645      0.09629
    14.05518      3.36065     -0.85749      0.11292      2.08989      3.36065     -0.85749
    14.11371      2.55581     -1.24744      0.12821      2.12611      2.55581     -1.24744
    14.17224      1.88816     -1.24748      0.14764      2.16620      1.88816     -1.24748
    14.23077      1.42189     -1.08489      0.17292      2.21073      1.42189     -1.08489
    14.28930      1.11168     -0.87668      0.20670      2.26013      1.11168     -0.87668
    14.34783      0.90777     -0.66756      0.25310      2.31432      0.90777     -0.66756
    14.40635      0.77630     -0.47127      0.31859      2.37162      0.77630     -0.47127
    14.46488      0.69749     -0.29041      0.41278      2.42600      0.69749     -0.29041
    14.52341      0.66156     -0.12485      0.54717      2.46097      0.66156     -0.12485
    14.58194      0.66556      0.02359      0.72422      2.43979      0.66556      0.02359
    14.64047      0.70929      0.14694      0.90350      2.31040      0.70929      0.14694
    14.69900      0.78632      0.22973      0.97933      2.07504      0.78632      0.22973
    14.75752      0.87626      0.26180      0.89135      1.85576      0.87626      0.26180
    14.81605      0.96444      0.24933      0.72262      1.75527      0.96445      0.24933
    14.87458      1.04674      0.18091      0.56896      1.75714      1.04674      0.18090
    14.93311      1.07286      0.04140      0.45927      1.81045      1.07284      0.04141
    14.99164      0.98522     -0.10312      0.38829      1.88363      0.98524     -0.10310
    15.05017      0.82568     -0.16527      0.34527      1.96323      0.82570     -0.16530
    15.10869      0.67237     -0.14149      0.32195      2.04473      0.67234     -0.14151
    15.16722      0.55862     -0.07002      0.31317      2.12735      0.55859     -0.07000
    15.22575      0.48537      0.01949      0.31609      2.21172      0.48538      0.01952
    15.28428      0.44505      0.11194      0.32954      2.29906      0.44510      0.11195
    15.34281      0.43059      0.20066      0.35365      2.39084      0.43061      0.20061
    15.40134      0.43751      0.28364      0.38982      2.48857      0.43746      0.28360
    15.45986      0.46671      0.36035      0.44090      2.59376      0.46665      0.36039
    15.51839      0.52421      0.42417      0.51167      2.70749      0.52423      0.42425
    15.57692      0.61233      0.45618      0.60973      2.82963      0.61243      0.45620
    15.63545      0.71288      0.42891      0.74660      2.95690      0.71294      0.42879
    15.69398      0.77618      0.33639      0.93837      3.07816      0.77606      0.33629
    15.75251      0.76441      0.22725      1.20210      3.16532      0.76429      0.22736
    15.81104      0.70210      0.15210      1.53746      3.16261      0.70219      0.15225
    15.86957      0.62385      0.11234      1.88379      3.00138      0.62400      0.11228
    15.92809      0.53815      0.10197      2.10565      2.68655      0.53814      0.10183
    15.98662      0.45592      0.12368      2.11639      2.36449      0.45581      0.12364
    16.04515      0.39144      0.17021      2.00192      2.19122      0.39136      0.17027
    16.10368      0.34958      0.22890      1.92179      2.17833      0.34958      0.22899
    16.16220      0.32876      0.29062      1.96799      2.23005      0.32884      0.29068
    16.22073      0.32608      0.34980      2.14249      2.23019      0.32619      0.34976
    16.27926      0.33822      0.40275      2.36992      2.09257      0.33824      0.40261
    16.33779      0.36167      0.44860      2.53853      1.81082      0.36152      0.44850
    16.39632      0.39717      0.48918      2.56914      1.44237      0.39700      0.48930
    16.45485      0.45205      0.52094      2.41366      1.08018      0.45210      0.52118
    16.51338      0.53085      0.52725      2.10688      0.85568      0.53114      0.52731
    16.57191      0.61924      0.48256      1.77953      0.82118      0.61942      0.48224
    16.63043      0.67322      0.37766      1.53053      0.92265      0.67289      0.37734
    16.68896      0.65051      0.25361      1.38744      1.08902      0.65009      0.25391
    16.74749      0.56610      0.17016      1.34629      1.27140      0.56635      0.17063
    16.80602      0.46790      0.14251      1.39732      1.43455      0.46838      0.14234
    16.86455      0.38344      0.15261      1.52383      1.54438      0.38337      0.15217
    16.92308      0.31872      0.18260      1.69099      1.57423      0.31835      0.18257
    16.98161      0.27264      0.22151      1.85814      1.52436      0.27251      0.22180
    17.04013      0.24213      0.26266      2.00344      1.40297      0.24234      0.26285
    17.09866      0.22360      0.30253      2.08911      1.20958      0.22381      0.30241
    17.15719      0.21421      0.34012      2.06412      0.99834      0.21416      0.33992
    17.21572      0.21331      0.37547      1.96014      0.85658      0.21313      0.37545
    17.27425      0.22212      0.40717      1.86432      0.78791      0.22204      0.40730
    17.33278      0.24162      0.43083      1.80153      0.72536      0.24171      0.43094
    17.39130      0.26934      0.43912      1.71799      0.63702      0.26946      0.43907
    17.44983      0.29508      0.42540      1.57193      0.57307      0.29505      0.42527
    17.50836      0.30244      0.39367      1.39911      0.59106      0.30233      0.39369
    17.56689      0.28367      0.36188      1.25912      0.68970      0.28369      0.36196
    17.62542      0.24820      0.34586      1.18236      0.83689      0.24824      0.34585
    17.68395      0.21042      0.34764      1.17667      1.00385      0.21042      0.34762
    17.74247      0.17815      0.36109      1.24519      1.16892      0.17814      0.36109
    17.80100      0.15267      0.38034      1.39317      1.30811      0.15267      0.38035
    17.85953      0.13309      0.40228      1.62214      1.38311      0.13309      0.40228
    17.91806      0.11843      0.42528      1.90691      1.33634      0.11843      0.42528
    17.97659      0.10783      0.44839      2.16092      1.12149      0.10783      0.44839
    18.03512      0.10049      0.47111      2.25550      0.78584      0.10049      0.47111
    18.09364      0.09581      0.49329      2.14987      0.48537      0.09581      0.49329
    18.15217      0.09343      0.51499      1.94866      0.33482      0.09343      0.51499
    18.21070      0.09318      0.53632      1.77651      0.32110      0.09318      0.53632
    18.26923      0.09513      0.55741      1.68835      0.37180      0.09513      0.55741
    18.32776      0.09954      0.57830      1.68063      0.42354      0.09954      0.57830
    18.38629      0.10684      0.59887      1.72731      0.44413      0.10684      0.59887
    18.44481      0.11760      0.61868      1.81031      0.42119      0.11760      0.61868
    18.50334      0.13223      0.63691      1.91583      0.33436      0.13223      0.63691
    18.56187      0.15067      0.65262      2.00548      0.16036      0.15067      0.65262
    18.62040      0.17287      0.66551      2.01624     -0.08942      0.17287      0.66551
    18.67893      0.20031      0.67517      1.90710     -0.35099      0.20031      0.67517
    18.73746      0.23557      0.67812      1.69735     -0.55261      0.23557      0.67813
    18.79598      0.27806      0.66632      1.43957     -0.66001      0.27806      0.66632
    18.85451      0.31832      0.63102      1.18576     -0.67570      0.31832      0.63102
    18.91304      0.33813      0.57363      0.96928     -0.62605      0.33813      0.57363
    18.97157      0.32507      0.51269      0.79948     -0.54148      0.32507      0.51270
    19.03010      0.28681      0.46948      0.67142     -0.44338      0.28681      0.46948
    19.08863      0.24132      0.44994      0.57621     -0.34323      0.24132      0.44994
    19.14716      0.20042      0.44764      0.50587     -0.24616      0.20042      0.44764
    19.20568      0.16718      0.45477      0.45445     -0.15398      0.16718      0.45477
    19.26421      0.14085      0.46676      0.41793     -0.06700      0.14085      0.46676
    19.32       0.1205       0.4813       0.3938       0.1505E-1    0.1205       0.4813   
    19.38127      0.10521      0.49678      0.38056      0.09241      0.10521      0.49678
    19.43980      0.09420      0.51211      0.37775      0.16491      0.09420      0.51211
    19.49833      0.08655      0.52661      0.38496      0.23153      0.08655      0.52661
    19.55686      0.08156      0.53997      0.40101      0.29041      0.08156      0.53997
    19.61539      0.07874      0.55190      0.42263      0.34017      0.07874      0.55190
    19.67391      0.07757      0.56207      0.44549      0.38307      0.07757      0.56207
    19.73244      0.07734      0.57030      0.46940      0.42545      0.07734      0.57030
    19.79097      0.07733      0.57671      0.50137      0.47165      0.07733      0.57671
    19.84950      0.07704      0.58175      0.55127      0.51856      0.07704      0.58175
    19.90803      0.07650      0.58594      0.62671      0.55569      0.07650      0.58594
    19.96655      0.07602      0.58906      0.72950      0.56566      0.07602      0.58906
    20.02508      0.07503      0.59048      0.84883      0.52563      0.07503      0.59048
    20.08361      0.07208      0.59050      0.95197      0.41875      0.07208      0.59050
    20.14214      0.06648      0.59089      0.99147      0.25979      0.06648      0.59089
    20.20067      0.05926      0.59327      0.94463      0.10258      0.05926      0.59327
    20.26       0.5205E-1    0.5978       0.8394       -.2416E-2    0.5205E-1    0.5978   
    20.31772      0.04581      0.60387      0.72300     -0.04585      0.04581      0.60387
    20.37625      0.04073      0.61056      0.62482     -0.04747      0.04073      0.61056
    20.43478      0.03669      0.61742      0.55175     -0.03090      0.03669      0.61742
    20.49       0.3346E-1    0.6242       0.4974       -.1182E-1    0.3346E-1    0.6242   
    20.55       0.3085E-1    0.6307       0.4514       0.5189E-2    0.3085E-1    0.6307   
    20.61037      0.02871      0.63696      0.40848      0.02360      0.02871      0.63696
    20.66890      0.02692      0.64293      0.37005      0.04665      0.02692      0.64293
    20.72742      0.02540      0.64864      0.33928      0.07299      0.02540      0.64864
    20.78595      0.02409      0.65410      0.31669      0.09922      0.02409      0.65410
    20.84448      0.02296      0.65932      0.30113      0.12279      0.02296      0.65932
    20.90301      0.02195      0.66433      0.29126      0.14157      0.02195      0.66433
    20.96154      0.02106      0.66914      0.28446      0.15288      0.02106      0.66914
    21.02       0.2025E-1    0.6738       0.2752       0.1558       0.2025E-1    0.6738   
    21.08       0.1953E-1    0.6782       0.2581       0.1546       0.1953E-1    0.6782   
    21.14       0.1886E-1    0.6825       0.2329       0.1564       0.1886E-1    0.6825   
    21.20       0.1825E-1    0.6867       0.2044       0.1655       0.1825E-1    0.6867   
    21.25       0.1769E-1    0.6907       0.1777       0.1811       0.1769E-1    0.6907   
    21.31       0.1717E-1    0.6946       0.1549       0.2006       0.1717E-1    0.6946   
    21.37       0.1669E-1    0.6984       0.1363       0.2216       0.1669E-1    0.6984   
    21.43       0.1624E-1    0.7021       0.1213       0.2428       0.1624E-1    0.7021   
    21.49       0.1581E-1    0.7057       0.1092       0.2634       0.1581E-1    0.7057   
    21.55       0.1542E-1    0.7092       0.9922E-1    0.2830       0.1542E-1    0.7092   
    21.61       0.1504E-1    0.7125       0.9098E-1    0.3016       0.1504E-1    0.7125   
    21.66       0.1469E-1    0.7158       0.8405E-1    0.3191       0.1469E-1    0.7158   
    21.72       0.1435E-1    0.7191       0.7813E-1    0.3357       0.1435E-1    0.7191   
    21.78       0.1403E-1    0.7222       0.7303E-1    0.3513       0.1403E-1    0.7222   
    21.84       0.1373E-1    0.7253       0.6858E-1    0.3660       0.1373E-1    0.7253   
    21.90       0.1344E-1    0.7282       0.6466E-1    0.3800       0.1344E-1    0.7282   
    21.96       0.1316E-1    0.7312       0.6118E-1    0.3933       0.1316E-1    0.7312   
    22.02       0.1290E-1    0.7340       0.5806E-1    0.4059       0.1290E-1    0.7340   
    22.07       0.1265E-1    0.7368       0.5525E-1    0.4179       0.1265E-1    0.7368   
    22.13       0.1240E-1    0.7395       0.5270E-1    0.4293       0.1240E-1    0.7395   
    22.19       0.1217E-1    0.7422       0.5038E-1    0.4403       0.1217E-1    0.7422   
    22.25       0.1195E-1    0.7448       0.4826E-1    0.4508       0.1195E-1    0.7448   
    22.31       0.1173E-1    0.7474       0.4630E-1    0.4608       0.1173E-1    0.7474   
    22.37       0.1152E-1    0.7499       0.4450E-1    0.4705       0.1152E-1    0.7499   
    22.42       0.1132E-1    0.7524       0.4283E-1    0.4797       0.1132E-1    0.7524   
    22.48       0.1113E-1    0.7548       0.4128E-1    0.4886       0.1113E-1    0.7548   
    22.54       0.1095E-1    0.7572       0.3983E-1    0.4972       0.1095E-1    0.7572   
    22.60       0.1077E-1    0.7595       0.3848E-1    0.5055       0.1077E-1    0.7595   
    22.66       0.1059E-1    0.7618       0.3721E-1    0.5135       0.1059E-1    0.7618   
    22.72       0.1042E-1    0.7640       0.3602E-1    0.5212       0.1042E-1    0.7640   
    22.78       0.1026E-1    0.7662       0.3489E-1    0.5287       0.1026E-1    0.7662   
    22.83       0.1010E-1    0.7684       0.3384E-1    0.5359       0.1010E-1    0.7684   
    22.89       0.9947E-2    0.7705       0.3284E-1    0.5429       0.9947E-2    0.7705   
    22.95       0.9797E-2    0.7726       0.3189E-1    0.5497       0.9797E-2    0.7726   
    23.01       0.9652E-2    0.7746       0.3100E-1    0.5562       0.9652E-2    0.7746   
    23.07       0.9512E-2    0.7766       0.3015E-1    0.5626       0.9512E-2    0.7766   
    23.13       0.9375E-2    0.7786       0.2934E-1    0.5688       0.9375E-2    0.7786   
    23.19       0.9242E-2    0.7806       0.2857E-1    0.5748       0.9242E-2    0.7806   
    23.24       0.9112E-2    0.7825       0.2783E-1    0.5807       0.9112E-2    0.7825   
    23.30       0.8986E-2    0.7844       0.2713E-1    0.5864       0.8986E-2    0.7844   
    23.36       0.8863E-2    0.7862       0.2646E-1    0.5919       0.8863E-2    0.7862   
    23.42       0.8743E-2    0.7881       0.2582E-1    0.5973       0.8743E-2    0.7881   
    23.48       0.8627E-2    0.7898       0.2521E-1    0.6025       0.8627E-2    0.7898   
    23.54       0.8513E-2    0.7916       0.2462E-1    0.6077       0.8513E-2    0.7916   
    23.60       0.8402E-2    0.7934       0.2406E-1    0.6127       0.8402E-2    0.7934   
    23.65       0.8293E-2    0.7951       0.2352E-1    0.6175       0.8293E-2    0.7951   
    23.71       0.8187E-2    0.7968       0.2300E-1    0.6223       0.8187E-2    0.7968   
    23.77       0.8084E-2    0.7984       0.2250E-1    0.6269       0.8084E-2    0.7984   
    23.83       0.7983E-2    0.8001       0.2202E-1    0.6314       0.7983E-2    0.8001   
    23.89       0.7885E-2    0.8017       0.2156E-1    0.6358       0.7885E-2    0.8017   
    23.95       0.7788E-2    0.8033       0.2111E-1    0.6402       0.7788E-2    0.8033   
    24.01       0.7694E-2    0.8048       0.2068E-1    0.6444       0.7694E-2    0.8048   
    24.06       0.7602E-2    0.8064       0.2027E-1    0.6485       0.7602E-2    0.8064   
    24.12       0.7511E-2    0.8079       0.1987E-1    0.6525       0.7511E-2    0.8079   
    24.18       0.7423E-2    0.8094       0.1948E-1    0.6565       0.7423E-2    0.8094   
    24.24       0.7337E-2    0.8109       0.1911E-1    0.6603       0.7337E-2    0.8109   
    24.30       0.7252E-2    0.8124       0.1875E-1    0.6641       0.7252E-2    0.8124   
    24.36       0.7169E-2    0.8138       0.1840E-1    0.6678       0.7169E-2    0.8138   
    24.41       0.7088E-2    0.8152       0.1806E-1    0.6714       0.7088E-2    0.8152   
    24.47       0.7008E-2    0.8166       0.1773E-1    0.6750       0.7008E-2    0.8166   
    24.53       0.6930E-2    0.8180       0.1741E-1    0.6785       0.6930E-2    0.8180   
    24.59       0.6854E-2    0.8194       0.1711E-1    0.6819       0.6854E-2    0.8194   
    24.65       0.6779E-2    0.8207       0.1681E-1    0.6852       0.6779E-2    0.8207   
    24.71       0.6705E-2    0.8220       0.1652E-1    0.6885       0.6705E-2    0.8220   
    24.77       0.6633E-2    0.8234       0.1624E-1    0.6917       0.6633E-2    0.8234   
    24.82       0.6562E-2    0.8247       0.1596E-1    0.6949       0.6562E-2    0.8247   
    24.88       0.6493E-2    0.8259       0.1570E-1    0.6980       0.6493E-2    0.8259   
    24.94       0.6425E-2    0.8272       0.1544E-1    0.7010       0.6425E-2    0.8272   
    25.00       0.6358E-2    0.8284       0.1519E-1    0.7040       0.6358E-2    0.8284   
# 
# 02/17/2019 at 13:24 YAMBO @ VivoBook [start]
# 02/17/2019 at 13:24                  [end]
#  
# Timing   [Min/Max/Average]: 07s/07s/07s
#
# .-Input file : yambo.in
# | optics                         # [R OPT] Optics
# | bse                            # [R BSE] Bethe Salpeter Equation.
# | bss                            # [R BSS] Bethe Salpeter Equation solver
# | em1s                           # [R Xs] Static Inverse Dielectric Matrix
# | BoseTemp= 0.000000     eV      # Bosonic Temperature
# | FFTGvecs=  749         RL      # [FFT] Plane-waves
# | X_Threads= 1                   # [OPENMP/X] Number of threads for response functions
# | DIP_Threads= 1                 # [OPENMP/X] Number of threads for dipoles
# | K_Threads= 1                   # [OPENMP/BSK] Number of threads for response functions
# | Chimod= "HARTREE"              # [X] IP/Hartree/ALDA/LRC/PF/BSfxc
# | BSEmod= "retarded"             # [BSE] resonant/retarded/coupling
# | BSKmod= "SEX"                  # [BSE] IP/Hartree/HF/ALDA/SEX/BSfxc
# | BSSmod= "h"                    # [BSS] (h)aydock/(d)iagonalization/(i)nversion/(t)ddft`
# | BSENGexx=  749         RL      # [BSK] Exchange components
# | BSENGBlk=  51          RL      # [BSK] Screened interaction block size
# | #WehCpl                        # [BSK] eh interaction included also in coupling
# | KfnQPdb= "E < ./02_QP_PPA/ndb.QP" # [EXTQP BSK BSS] Database
# | % BSEBands
# |   3 |  5 |                     # [BSK] Bands range
# | %
# | % BEnRange
# |   7.50000 | 25.00000 | eV      # [BSS] Energy range
# | %
# | % BDmRange
# |   0.10000 |  0.30000 | eV      # [BSS] Damping range
# | %
# | BEnSteps= 300                  # [BSS] Energy steps
# | % BLongDir
# | 0.1000E-4 | 0.000    | 0.000    |        # [BSS] [cc] Electric Field
# | %
# | BSHayTrs=   0.0050             # [BSS] Relative [o/o] Haydock threshold. Strict(>0)/Average(<0)
# | % BndsRnXs
# |   1 | 10 |                     # [Xs] Polarization function bands
# | %
# | NGsBlkXs=  51          RL      # [Xs] Response block size
# | % DmRngeXs
# | 0.1000E-2 |0.1000E-2 | eV      # [Xs] Damping range
# | %
# | % LongDrXs
# | 0.1000E-4 | 0.000    | 0.000    |        # [Xs] [cc] Electric Field
# | %
