#                                                           
# ooooo   oooo ..     ooo        ooo ooooooooo.    .oooo.   
#  `88.   .8" .88.    `88.       .88 `88"   `Y8b  dP"  `Yb  
#   `88. .8" .8"88.    888b     d"88  88     888 88      88 
#    `88.8" .8" `88.   8 Y88. .P  88  88oooo888" 88      88 
#     `88" .88ooo888.  8  `888"   88  88    `88b 88      88 
#      88 .8"     `88. 8    Y     88  88    .88P `8b    d8" 
#     o88o88o      888o8          88 o88bood8P"   `Ybod8P"  
#                                                           
#                                                           
#         Version 4.3.0 Revision 15209 Hash ca63943         
#                     MPI+OpenMP Build                      
#                 http://www.yambo-code.org                 
#
# Absorption @ Q(1) [q->0 direction] : 1.0000000  0.0000000  0.0000000
#
# BZ Energy DbGd points: 1009
#
# - Energies      are  Analyt. E
# - Wavefunctions are Slater exchange(X)+Perdew & Zunger(C)
#
# - The Green`s function is T-ordered -
# - Using the Length Gauge -
# - [r,Vnl] *is* included -
#
#    E/ev[1]       EPS-Im[2]     EPS-Re[3]
#
    10.000       0.84088E-2     1.8195   
    10.030       0.84732E-2     1.8217   
    10.060       0.85386E-2     1.8239   
    10.090       0.86050E-2     1.8260   
    10.120       0.86722E-2     1.8282   
    10.150       0.87406E-2     1.8305   
    10.180       0.88098E-2     1.8327   
    10.210       0.88801E-2     1.8350   
    10.240       0.89515E-2     1.8373   
    10.271       0.90240E-2     1.8396   
    10.301       0.90976E-2     1.8420   
    10.331       0.91722E-2     1.8443   
    10.361       0.92480E-2     1.8467   
    10.391       0.93250E-2     1.8491   
    10.421       0.94032E-2     1.8516   
    10.451       0.94825E-2     1.8540   
    10.481       0.95632E-2     1.8565   
    10.511       0.96451E-2     1.8590   
    10.541       0.97283E-2     1.8615   
    10.571       0.98128E-2     1.8641   
    10.601       0.98988E-2     1.8667   
    10.631       0.99860E-2     1.8693   
    10.661       0.10075E-1     1.8719   
    10.691       0.10165E-1     1.8746   
    10.721       0.10257E-1     1.8773   
    10.752       0.10350E-1     1.8800   
    10.782       0.10445E-1     1.8828   
    10.812       0.10541E-1     1.8856   
    10.842       0.10639E-1     1.8884   
    10.872       0.10739E-1     1.8912   
    10.902       0.10840E-1     1.8941   
    10.931864      0.010943      1.897008
    10.961924      0.011048      1.899948
    10.991983      0.011155      1.902916
    11.022043      0.011264      1.905921
    11.052104      0.011375      1.908959
    11.082164      0.011487      1.912029
    11.112224      0.011602      1.915133
    11.142284      0.011719      1.918280
    11.172344      0.011838      1.921457
    11.202405      0.011959      1.924669
    11.232465      0.012083      1.927923
    11.262525      0.012209      1.931211
    11.292584      0.012337      1.934537
    11.322644      0.012468      1.937906
    11.352705      0.012601      1.941318
    11.382765      0.012737      1.944769
    11.412826      0.012876      1.948258
    11.442885      0.013017      1.951791
    11.472945      0.013162      1.955369
    11.503006      0.013309      1.958993
    11.533066      0.013459      1.962659
    11.563126      0.013612      1.966378
    11.593185      0.013769      1.970134
    11.623246      0.013929      1.973948
    11.653306      0.014092      1.977808
    11.683366      0.014259      1.981713
    11.713427      0.014429      1.985669
    11.743487      0.014604      1.989687
    11.773547      0.014782      1.993749
    11.803607      0.014964      1.997874
    11.833667      0.015150      2.002046
    11.863727      0.015341      2.006275
    11.893787      0.015536      2.010576
    11.923847      0.015735      2.014923
    11.953907      0.015940      2.019335
    11.983968      0.016149      2.023814
    12.014028      0.016363      2.028351
    12.044088      0.016583      2.032951
    12.074148      0.016808      2.037628
    12.104208      0.017038      2.042366
    12.134268      0.017275      2.047180
    12.164328      0.017518      2.052061
    12.194388      0.017767      2.057025
    12.224448      0.018022      2.062053
    12.254508      0.018285      2.067173
    12.284569      0.018554      2.072364
    12.314629      0.018831      2.077638
    12.344689      0.019116      2.082999
    12.374749      0.019409      2.088444
    12.404809      0.019711      2.093979
    12.434870      0.020021      2.099612
    12.464929      0.020340      2.105333
    12.494989      0.020669      2.111156
    12.525049      0.021008      2.117084
    12.555110      0.021358      2.123105
    12.585171      0.021719      2.129241
    12.615231      0.022091      2.135472
    12.645290      0.022475      2.141829
    12.675350      0.022873      2.148304
    12.705410      0.023283      2.154901
    12.735471      0.023708      2.161624
    12.765531      0.024148      2.168477
    12.795590      0.024603      2.175461
    12.825650      0.025076      2.182581
    12.855711      0.025565      2.189847
    12.885772      0.026074      2.197264
    12.915832      0.026602      2.204833
    12.945891      0.027151      2.212569
    12.975951      0.027723      2.220463
    13.006011      0.028318      2.228540
    13.036072      0.028939      2.236797
    13.066132      0.029586      2.245240
    13.096191      0.030263      2.253881
    13.126252      0.030971      2.262731
    13.156312      0.031712      2.271799
    13.186373      0.032489      2.281083
    13.216433      0.033304      2.290609
    13.246492      0.034162      2.300380
    13.276553      0.035065      2.310414
    13.306613      0.036017      2.320727
    13.336673      0.037023      2.331331
    13.366733      0.038088      2.342242
    13.396792      0.039217      2.353465
    13.426853      0.040417      2.365035
    13.456913      0.041695      2.376971
    13.486974      0.043060      2.389295
    13.517034      0.044521      2.402024
    13.547093      0.046090      2.415201
    13.577154      0.047781      2.428854
    13.607213      0.049608      2.443012
    13.637274      0.051589      2.457729
    13.667335      0.053749      2.473021
    13.697394      0.056112      2.488989
    13.727455      0.058711      2.505651
    13.757514      0.061586      2.523060
    13.787575      0.064787      2.541343
    13.817636      0.068374      2.560540
    13.847694      0.072424      2.580810
    13.877755      0.077041      2.602221
    13.907814      0.082352      2.624945
    13.937875      0.088536      2.649145
    13.967936      0.095826      2.675015
    13.997995      0.104546      2.702787
    14.028056      0.115157      2.732730
    14.058115      0.128313      2.765126
    14.088176      0.144981      2.800233
    14.118237      0.166594      2.838193
    14.148295      0.195289      2.878712
    14.178356      0.234109      2.920458
    14.208415      0.286785      2.959693
    14.238476      0.355732      2.988174
    14.268537      0.436332      2.993401
    14.298596      0.511058      2.967384
    14.328657      0.558443      2.921617
    14.358716      0.576825      2.882442
    14.388777      0.587115      2.862839
    14.418838      0.607175      2.851760
    14.448898      0.635029      2.830835
    14.478957      0.653600      2.794210
    14.509016      0.650213      2.754197
    14.539077      0.627402      2.726222
    14.569138      0.595597      2.718185
    14.599198      0.566244      2.730066
    14.629258      0.547239      2.756133
    14.659319      0.541801      2.788802
    14.689378      0.548748      2.820589
    14.719439      0.562995      2.846893
    14.749499      0.578717      2.867718
    14.779558      0.592678      2.886735
    14.809619      0.605924      2.907390
    14.839679      0.619902      2.929803
    14.869739      0.633445      2.955508
    14.899799      0.649990      2.989362
    14.929859      0.678053      3.029907
    14.959920      0.721699      3.069252
    14.989979      0.779803      3.099186
    15.020040      0.846829      3.112145
    15.050100      0.911708      3.104970
    15.080159      0.963578      3.084384
    15.110220      1.001620      3.061619
    15.140280      1.031126      3.041776
    15.170341      1.056311      3.025911
    15.200401      1.081043      3.012767
    15.230460      1.106482      2.998378
    15.260521      1.129136      2.979087
    15.290580      1.141789      2.957150
    15.320641      1.143841      2.943203
    15.350701      1.147036      2.940875
    15.380760      1.156505      2.939406
    15.410821      1.162457      2.932789
    15.440881      1.156507      2.929143
    15.470942      1.141304      2.939990
    15.501002      1.127768      2.971524
    15.531061      1.128455      3.019105
    15.561122      1.145975      3.071256
    15.591181      1.174438      3.123372
    15.621242      1.211584      3.178270
    15.651302      1.261263      3.238567
    15.681361      1.331685      3.301241
    15.711422      1.427048      3.353528
    15.741482      1.538124      3.381642
    15.771543      1.646773      3.384645
    15.801603      1.742127      3.377293
    15.831662      1.830558      3.376169
    15.861723      1.928955      3.386266
    15.891782      2.054698      3.399070
    15.921843      2.218031      3.392206
    15.951903      2.409067      3.336138
    15.981964      2.597261      3.214979
    16.012024      2.750146      3.035725
    16.042082      2.846336      2.819119
    16.072144      2.876181      2.591539
    16.102203      2.842973      2.380127
    16.132265      2.759889      2.206944
    16.162325      2.649115      2.088782
    16.192385      2.542484      2.027429
    16.222445      2.464407      2.003004
    16.252504      2.418341      1.989687
    16.282566      2.393877      1.970831
    16.312624      2.376635      1.941912
    16.342686      2.356993      1.909312
    16.372744      2.337007      1.881675
    16.402805      2.324131      1.857220
    16.432865      2.316472      1.829206
    16.462925      2.309644      1.799905
    16.492987      2.308683      1.770686
    16.523045      2.314671      1.731977
    16.553106      2.316192      1.679320
    16.583166      2.305425      1.620176
    16.613226      2.282387      1.561646
    16.643286      2.249927      1.508914
    16.673346      2.212981      1.462202
    16.703405      2.170569      1.419681
    16.733467      2.122256      1.385681
    16.763527      2.072985      1.363040
    16.793587      2.030028      1.350126
    16.823647      1.996525      1.335674
    16.853706      1.958682      1.312481
    16.883768      1.905691      1.294526
    16.913826      1.847852      1.295546
    16.943888      1.798687      1.312112
    16.973946      1.760150      1.335533
    17.004007      1.729734      1.364177
    17.034067      1.710069      1.398767
    17.064127      1.705625      1.434655
    17.094189      1.715796      1.463584
    17.124247      1.733715      1.478333
    17.154308      1.745820      1.479701
    17.184368      1.746179      1.483448
    17.214430      1.748748      1.500135
    17.244488      1.765709      1.520892
    17.274548      1.795109      1.536302
    17.304609      1.834808      1.543525
    17.334669      1.882826      1.537434
    17.364729      1.933525      1.515575
    17.394789      1.983788      1.477004
    17.424849      2.027274      1.417719
    17.454908      2.050990      1.340430
    17.484970      2.047556      1.258961
    17.515030      2.021302      1.187073
    17.545090      1.982938      1.131142
    17.575150      1.941350      1.088588
    17.605209      1.898852      1.055671
    17.635271      1.857340      1.031182
    17.665331      1.819286      1.010760
    17.695391      1.779349      0.988723
    17.725449      1.728270      0.970203
    17.755510      1.666680      0.968175
    17.785570      1.606585      0.990922
    17.815632      1.561946      1.034978
    17.845690      1.538785      1.092075
    17.875750      1.541870      1.157320
    17.905811      1.579772      1.220793
    17.935871      1.654680      1.262657
    17.965933      1.754420      1.261499
    17.995991      1.852341      1.204615
    18.026051      1.915110      1.101264
    18.056110      1.927163      0.982379
    18.086172      1.898846      0.872190
    18.116232      1.840929      0.776330
    18.146292      1.755167      0.701720
    18.176352      1.649331      0.661623
    18.206411      1.542084      0.665115
    18.236473      1.457762      0.706461
    18.266533      1.409755      0.764264
    18.296593      1.393947      0.818257
    18.326653      1.400429      0.858638
    18.356712      1.420363      0.879951
    18.386772      1.442457      0.879842
    18.416834      1.456015      0.863445
    18.446892      1.456784      0.839935
    18.476954      1.446454      0.817447
    18.507013      1.430818      0.799911
    18.537073      1.414427      0.785060
    18.567135      1.395461      0.769866
    18.597193      1.370834      0.758626
    18.627254      1.347213      0.757057
    18.657312      1.333736      0.758474
    18.687374      1.326141      0.751993
    18.717434      1.314577      0.738590
    18.747496      1.297604      0.725448
    18.777555      1.280885      0.715154
    18.807613      1.268464      0.700754
    18.837675      1.251112      0.674241
    18.867735      1.214771      0.644190
    18.897797      1.162660      0.628570
    18.927855      1.110547      0.631114
    18.957914      1.065467      0.643334
    18.987974      1.025576      0.660020
    19.018036      0.988842      0.681305
    19.048096      0.956782      0.708878
    19.078156      0.933022      0.741808
    19.108215      0.920540      0.776601
    19.138275      0.920129      0.807224
    19.168337      0.927837      0.827986
    19.198397      0.937752      0.836934
    19.228456      0.944005      0.834733
    19.258514      0.941308      0.825472
    19.288576      0.928554      0.815960
    19.318636      0.909262      0.810632
    19.348698      0.886746      0.810063
    19.378757      0.862799      0.814582
    19.408815      0.840516      0.824293
    19.438877      0.822829      0.835582
    19.468937      0.807232      0.843588
    19.498999      0.788448      0.848901
    19.529057      0.764905      0.855470
    19.559116      0.737427      0.866066
    19.589176      0.707673      0.883376
    19.619238      0.679482      0.908864
    19.649298      0.656827      0.941076
    19.679358      0.641777      0.976780
    19.709417      0.634533      1.013064
    19.739477      0.635155      1.047205
    19.769539      0.642055      1.075238
    19.799599      0.650187      1.094996
    19.829659      0.654597      1.109008
    19.859718      0.654284      1.121693
    19.889778      0.650717      1.135550
    19.919840      0.644978      1.151617
    19.949900      0.638085      1.171554
    19.979959      0.633244      1.196718
    20.010019      0.634526      1.225126
    20.040079      0.643231      1.251954
    20.070139      0.656641      1.273151
    20.100201      0.670695      1.287995
    20.130259      0.682848      1.298178
    20.160320      0.692984      1.305027
    20.190380      0.700027      1.307202
    20.220440      0.698667      1.305808
    20.250502      0.686315      1.308770
    20.280560      0.669046      1.323111
    20.310621      0.654530      1.347919
    20.340679      0.645639      1.379695
    20.370741      0.644033      1.416569
    20.400801      0.651955      1.455676
    20.430862      0.670273      1.492483
    20.460920      0.696955      1.521299
    20.490980      0.725016      1.538648
    20.521042      0.747012      1.548182
    20.551102      0.761267      1.556606
    20.581163      0.769429      1.569078
    20.611221      0.775658      1.590295
    20.641281      0.788351      1.621462
    20.671341      0.815332      1.656035
    20.701403      0.856920      1.683044
    20.731462      0.905036      1.694841
    20.761522      0.949275      1.693115
    20.791582      0.987235      1.686203
    20.821642      1.025062      1.675492
    20.851704      1.061752      1.653235
    20.881763      1.086337      1.618755
    20.911823      1.092436      1.581879
    20.941881      1.082519      1.552725
    20.971943      1.063842      1.537048
    21.002003      1.044719      1.534393
    21.032064      1.028862      1.539818
    21.062124      1.014968      1.550597
    21.092182      1.002696      1.568241
    21.122244      0.995518      1.593611
    21.152304      0.997021      1.624162
    21.182365      1.009166      1.655635
    21.212423      1.031083      1.682078
    21.242483      1.057262      1.699686
    21.272543      1.082328      1.709760
    21.302605      1.103680      1.714635
    21.332664      1.118593      1.717248
    21.362724      1.127009      1.723638
    21.392784      1.135123      1.737243
    21.422844      1.147730      1.753289
    21.452906      1.161002      1.767191
    21.482965      1.170051      1.782165
    21.513025      1.176349      1.804140
    21.543083      1.185367      1.834321
    21.573145      1.199410      1.869873
    21.603205      1.217634      1.909905
    21.633266      1.239877      1.955987
    21.663326      1.268056      2.010981
    21.693386      1.307688      2.077116
    21.723446      1.366704      2.152015
    21.753506      1.449618      2.228413
    21.783567      1.556157      2.300461
    21.813625      1.686871      2.366247
    21.843687      1.848400      2.423326
    21.873745      2.051002      2.458755
    21.903807      2.294821      2.447449
    21.933867      2.562488      2.363842
    21.963928      2.821536      2.192992
    21.993988      3.032235      1.939448
    22.024046      3.161830      1.629028
    22.054108      3.194753      1.299496
    22.084167      3.134202      0.991176
    22.114229      3.002683      0.737512
    22.144287      2.834335      0.554309
    22.174347      2.662619      0.439703
    22.204407      2.515860      0.376412
    22.234468      2.405166      0.332336
    22.264528      2.314087      0.280957
    22.294588      2.217200      0.223373
    22.324648      2.109127      0.178190
    22.354708      2.002735      0.152401
    22.384769      1.905805      0.138571
    22.414829      1.816755      0.129365
    22.444889      1.730553      0.122024
    22.474949      1.642145      0.118471
    22.505009      1.549581      0.124625
    22.535070      1.457216      0.147396
    22.565130      1.375182      0.187958
    22.595190      1.311552      0.239023
    22.625248      1.267125      0.290610
    22.655310      1.237804      0.335355
    22.685369      1.217087      0.368678
    22.715431      1.196659      0.390162
    22.745489      1.169563      0.404448
    22.775549      1.133736      0.419912
    22.805611      1.094225      0.442520
    22.835670      1.056086      0.471756
    22.865732      1.021347      0.506178
    22.895790      0.991619      0.543543
    22.925850      0.965163      0.581613
    22.955910      0.940726      0.622404
    22.985971      0.921336      0.666339
    23.016031      0.907615      0.709698
    23.046091      0.895898      0.751085
    23.076151      0.883940      0.793662
    23.106211      0.874038      0.840465
    23.136272      0.869391      0.890646
    23.166332      0.870467      0.942138
    23.196392      0.877109      0.994692
    23.226452      0.890647      1.047546
    23.256512      0.911029      1.098498
    23.286572      0.937152      1.147062
    23.316633      0.969943      1.192929
    23.346691      1.009752      1.232724
    23.376753      1.052392      1.263662
    23.406813      1.093141      1.288249
    23.436872      1.132053      1.311695
    23.466934      1.174377      1.335963
    23.496992      1.224567      1.355667
    23.527054      1.278573      1.362929
    23.557112      1.326322      1.357579
    23.587173      1.362221      1.347947
    23.617233      1.389319      1.342432
    23.647295      1.414271      1.343215
    23.677353      1.441093      1.347824
    23.707413      1.470534      1.353809
    23.737474      1.502492      1.359658
    23.767534      1.536185      1.364014
    23.797596      1.569332      1.366789
    23.827652      1.600668      1.370982
    23.857714      1.632702      1.379667
    23.887774      1.669431      1.392750
    23.917835      1.713206      1.408096
    23.947895      1.765399      1.423720
    23.977953      1.826581      1.437004
    24.008015      1.896349      1.446653
    24.038074      1.976255      1.451438
    24.068136      2.067204      1.447574
    24.098196      2.168089      1.431935
    24.128254      2.279154      1.401442
    24.158314      2.399138      1.349697
    24.188375      2.522792      1.271271
    24.218435      2.645193      1.160772
    24.248497      2.753763      1.008193
    24.278557      2.820920      0.816198
    24.308615      2.828286      0.613132
    24.338676      2.785066      0.427429
    24.368736      2.707290      0.269533
    24.398798      2.606355      0.145003
    24.428858      2.496648      0.056261
    24.459        2.3897       -.25469E-2
    24.488976      2.289901     -0.037682
    24.519037      2.200692     -0.052278
    24.549097      2.127105     -0.050176
    24.579159      2.073240     -0.037755
    24.609        2.0417       -.23212E-1
    24.639        2.0308       -.18099E-1
    24.669338      2.029989     -0.031232
    24.699398      2.027422     -0.061004
    24.729460      2.017968     -0.102392
    24.759518      1.997875     -0.151795
    24.789577      1.965132     -0.203384
    24.819639      1.921216     -0.253736
    24.849699      1.864122     -0.301487
    24.879759      1.790885     -0.338427
    24.909817      1.708855     -0.353599
    24.939878      1.631810     -0.345963
    24.969938      1.568903     -0.322832
    25.000000      1.523522     -0.293650
# 
# 01/16/2018 at 11:09 YAMBO @ anomaly [start]
# 01/16/2018 at 11:10                 [end]
#  
# Timing   [Min/Max/Average]: 01m-24s/01m-24s/01m-24s
#
# .-Input file : yambo.in
# | optics                         # [R OPT] Optics
# | chi                            # [R CHI] Dyson equation for Chi.
# | ElecTemp=0.1723E-4     eV      # Electronic Temperature
# | BoseTemp=0.1723E-4     eV      # Bosonic Temperature
# | FFTGvecs= 1807         RL      # [FFT] Plane-waves
# | X_Threads= 1                   # [OPENMP/X] Number of threads for response functions
# | DIP_Threads= 1                 # [OPENMP/X] Number of threads for dipoles
# | Chimod= "IP"                   # [X] IP/Hartree/ALDA/LRC/BSfxc
# | NGsBlkXd= 1            RL      # [Xd] Response block size
# | % QpntsRXd
# |  1 | 2 |                       # [Xd] Transferred momenta
# | %
# | % BndsRnXd
# |   2 |  7 |                     # [Xd] Polarization function bands
# | %
# | % EnRngeXd
# |  10.00000 | 25.00000 | eV      # [Xd] Energy range
# | %
# | % DmRngeXd
# |   0.10000 |  0.10000 | eV      # [Xd] Damping range
# | %
# | ETStpsXd=  500                 # [Xd] Total Energy steps
# | % LongDrXd
# | 0.1000E-4 | 0.000    | 0.000    |        # [Xd] [cc] Electric Field
# | %
# | % XfnQP_E
# |  5.350000 | 1.000000 | 1.000000 |        # [EXTQP Xd] E parameters  (c/v) eV|adim|adim
# | %
