#  __      __   ______   __       __  _______    ______     
# |  \    /  \ /      \ |  \     /  \|       \  /      \    
#  \$$\  /  $$|  $$$$$$\| $$\   /  $$| $$$$$$$\|  $$$$$$\   
#   \$$\/  $$ | $$__| $$| $$$\ /  $$$| $$__/ $$| $$  | $$   
#    \$$  $$  | $$    $$| $$$$\  $$$$| $$    $$| $$  | $$   
#     \$$$$   | $$$$$$$$| $$\$$ $$ $$| $$$$$$$\| $$  | $$   
#     | $$    | $$  | $$| $$ \$$$| $$| $$__/ $$| $$__/ $$   
#     | $$    | $$  | $$| $$  \$ | $$| $$    $$ \$$    $$   
#      \$$     \$$   \$$ \$$      \$$ \$$$$$$$   \$$$$$$    
#                                                           
#        Version 4.3.0 Revision 15206 Hash a2335b2          
#                  MPI+SLK+OpenMP Build                     
#                http://www.yambo-code.org                  
#
# Absorption @ Q(1) [q->0 direction] : 1.0000000  0.0000000  0.0000000
#
#
# BZ Energy DbGd points: 1000
#
# - Energies      are  Analyt. E
# - Wavefunctions are Slater exchange(X)+Perdew & Zunger(C)
#
# - The Green`s function is T-ordered -
# - Using the Length Gauge -
# - [r,Vnl] *is* included -
#
#    E/ev[1]       EPS-Im[2]     EPS-Re[3]
#
    10.000       0.84140E-2     1.8198   
    10.030       0.84784E-2     1.8220   
    10.060       0.85438E-2     1.8241   
    10.090       0.86102E-2     1.8263   
    10.120       0.86774E-2     1.8285   
    10.150       0.87458E-2     1.8308   
    10.180       0.88151E-2     1.8330   
    10.210       0.88855E-2     1.8353   
    10.240       0.89568E-2     1.8376   
    10.271       0.90293E-2     1.8399   
    10.301       0.91029E-2     1.8423   
    10.331       0.91775E-2     1.8446   
    10.361       0.92533E-2     1.8470   
    10.391       0.93304E-2     1.8494   
    10.421       0.94085E-2     1.8519   
    10.451       0.94879E-2     1.8543   
    10.481       0.95686E-2     1.8568   
    10.511       0.96505E-2     1.8593   
    10.541       0.97337E-2     1.8619   
    10.571       0.98182E-2     1.8644   
    10.601       0.99041E-2     1.8670   
    10.631       0.99914E-2     1.8696   
    10.661       0.10080E-1     1.8723   
    10.691       0.10170E-1     1.8749   
    10.721       0.10262E-1     1.8776   
    10.752       0.10355E-1     1.8804   
    10.782       0.10450E-1     1.8831   
    10.812       0.10546E-1     1.8859   
    10.842       0.10644E-1     1.8887   
    10.872       0.10744E-1     1.8916   
    10.902       0.10845E-1     1.8944   
    10.931864      0.010948      1.897339
    10.961924      0.011053      1.900271
    10.991983      0.011160      1.903247
    11.022043      0.011269      1.906255
    11.052104      0.011380      1.909290
    11.082164      0.011492      1.912360
    11.112224      0.011607      1.915465
    11.142284      0.011724      1.918617
    11.172344      0.011843      1.921792
    11.202405      0.011964      1.925007
    11.232465      0.012087      1.928264
    11.262525      0.012213      1.931558
    11.292584      0.012341      1.934882
    11.322644      0.012472      1.938255
    11.352705      0.012605      1.941663
    11.382765      0.012741      1.945116
    11.412826      0.012879      1.948606
    11.442885      0.013020      1.952142
    11.472945      0.013165      1.955719
    11.503006      0.013312      1.959345
    11.533066      0.013462      1.963013
    11.563126      0.013615      1.966731
    11.593185      0.013771      1.970487
    11.623246      0.013931      1.974297
    11.653306      0.014094      1.978162
    11.683366      0.014260      1.982065
    11.713427      0.014430      1.986024
    11.743487      0.014604      1.990039
    11.773547      0.014782      1.994101
    11.803607      0.014963      1.998227
    11.833667      0.015149      2.002403
    11.863727      0.015340      2.006632
    11.893787      0.015534      2.010924
    11.923847      0.015733      2.015275
    11.953907      0.015937      2.019682
    11.983968      0.016145      2.024158
    12.014028      0.016359      2.028699
    12.044088      0.016577      2.033299
    12.074148      0.016802      2.037971
    12.104208      0.017032      2.042714
    12.134268      0.017267      2.047524
    12.164328      0.017509      2.052400
    12.194388      0.017757      2.057355
    12.224448      0.018011      2.062388
    12.254508      0.018273      2.067499
    12.284569      0.018541      2.072690
    12.314629      0.018817      2.077966
    12.344689      0.019100      2.083315
    12.374749      0.019391      2.088756
    12.404809      0.019691      2.094287
    12.434870      0.019999      2.099911
    12.464929      0.020317      2.105628
    12.494989      0.020643      2.111439
    12.525049      0.020980      2.117351
    12.555110      0.021327      2.123372
    12.585171      0.021685      2.129490
    12.615231      0.022054      2.135717
    12.645290      0.022436      2.142070
    12.675350      0.022830      2.148533
    12.705410      0.023236      2.155111
    12.735471      0.023657      2.161818
    12.765531      0.024092      2.168653
    12.795590      0.024543      2.175624
    12.825650      0.025010      2.182728
    12.855711      0.025494      2.189972
    12.885772      0.025997      2.197370
    12.915832      0.026518      2.204915
    12.945891      0.027059      2.212619
    12.975951      0.027623      2.220496
    13.006011      0.028209      2.228538
    13.036072      0.028820      2.236766
    13.066132      0.029457      2.245172
    13.096191      0.030121      2.253768
    13.126252      0.030816      2.262577
    13.156312      0.031542      2.271592
    13.186373      0.032303      2.280828
    13.216433      0.033100      2.290299
    13.246492      0.033938      2.300014
    13.276553      0.034818      2.309978
    13.306613      0.035745      2.320216
    13.336673      0.036723      2.330736
    13.366733      0.037757      2.341545
    13.396792      0.038850      2.352674
    13.426853      0.040009      2.364145
    13.456913      0.041241      2.375950
    13.486974      0.042554      2.388139
    13.517034      0.043955      2.400721
    13.547093      0.045455      2.413724
    13.577154      0.047066      2.427189
    13.607213      0.048801      2.441139
    13.637274      0.050675      2.455607
    13.667335      0.052709      2.470640
    13.697394      0.054924      2.486284
    13.727455      0.057349      2.502603
    13.757514      0.060016      2.519619
    13.787575      0.062965      2.537449
    13.817636      0.066247      2.556135
    13.847694      0.069927      2.575787
    13.877755      0.074085      2.596506
    13.907814      0.078826      2.618409
    13.937875      0.084287      2.641657
    13.967936      0.090654      2.666415
    13.997995      0.098176      2.692861
    14.028056      0.107205      2.721252
    14.058115      0.118236      2.751816
    14.088176      0.131989      2.784816
    14.118237      0.149527      2.820393
    14.148295      0.172400      2.858458
    14.178356      0.202777      2.898174
    14.208415      0.243250      2.937191
    14.238476      0.295617      2.970620
    14.268537      0.358094      2.991227
    14.298596      0.422608      2.993099
    14.328657      0.477141      2.978555
    14.358716      0.516004      2.959525
    14.388777      0.546270      2.946046
    14.418838      0.577806      2.936238
    14.448898      0.612053      2.921838
    14.478957      0.642263      2.898733
    14.509016      0.661967      2.870792
    14.539077      0.670241      2.844202
    14.569138      0.669019      2.823330
    14.599198      0.661168      2.811524
    14.629258      0.651556      2.811464
    14.659319      0.647523      2.821738
    14.689378      0.652815      2.834822
    14.719439      0.663183      2.843967
    14.749499      0.671855      2.849544
    14.779558      0.676520      2.856810
    14.809619      0.680342      2.869311
    14.839679      0.686239      2.885907
    14.869739      0.693648      2.906047
    14.899799      0.704092      2.932348
    14.929859      0.723206      2.964242
    14.959920      0.754419      2.995957
    14.989979      0.796217      3.021045
    15.020040      0.844025      3.035296
    15.050100      0.891206      3.037605
    15.080159      0.932118      3.032440
    15.110220      0.967582      3.025237
    15.140280      0.999372      3.016914
    15.170341      1.027880      3.009351
    15.200401      1.057174      3.003166
    15.230460      1.088810      2.992870
    15.260521      1.116681      2.975083
    15.290580      1.134882      2.954425
    15.320641      1.144389      2.937376
    15.350701      1.149099      2.926215
    15.380760      1.151480      2.920485
    15.410821      1.152119      2.919383
    15.440881      1.150129      2.923012
    15.470942      1.144504      2.934994
    15.501002      1.140426      2.960563
    15.531061      1.147196      2.996991
    15.561122      1.166396      3.034662
    15.591181      1.190690      3.069978
    15.621242      1.216732      3.108979
    15.651302      1.250594      3.155912
    15.681361      1.299139      3.206940
    15.711422      1.364402      3.254443
    15.741482      1.442209      3.290430
    15.771543      1.522078      3.313887
    15.801603      1.599143      3.334819
    15.831662      1.681040      3.361074
    15.861723      1.777957      3.391027
    15.891782      1.897856      3.417497
    15.921843      2.045163      3.426961
    15.951903      2.213679      3.402530
    15.981964      2.387022      3.334251
    16.012024      2.547167      3.223077
    16.042082      2.680917      3.076956
    16.072144      2.780062      2.905570
    16.102203      2.837887      2.718425
    16.132265      2.846619      2.530362
    16.162325      2.809460      2.366058
    16.192385      2.749201      2.241703
    16.222445      2.689135      2.151892
    16.252504      2.638353      2.083357
    16.282566      2.598198      2.026562
    16.312624      2.567735      1.973550
    16.342686      2.540485      1.918075
    16.372744      2.508487      1.863552
    16.402805      2.473353      1.816528
    16.432865      2.438408      1.777061
    16.462925      2.404878      1.747395
    16.492987      2.380843      1.728838
    16.523045      2.373816      1.712519
    16.553106      2.382161      1.687110
    16.583166      2.399624      1.643891
    16.613226      2.413973      1.576245
    16.643286      2.407967      1.487611
    16.673346      2.369423      1.393669
    16.703405      2.300131      1.316271
    16.733467      2.217981      1.269163
    16.763527      2.142548      1.248011
    16.793587      2.081737      1.238534
    16.823647      2.030108      1.228030
    16.853706      1.975260      1.216608
    16.883768      1.915061      1.215589
    16.913826      1.859443      1.229572
    16.943888      1.815124      1.252275
    16.973946      1.780395      1.278186
    17.004007      1.753674      1.307136
    17.034067      1.736088      1.338874
    17.064127      1.729506      1.371843
    17.094189      1.735690      1.402174
    17.124247      1.753256      1.423850
    17.154308      1.775798      1.433021
    17.184368      1.796693      1.432329
    17.214430      1.815165      1.426884
    17.244488      1.833461      1.417696
    17.274548      1.851502      1.404182
    17.304609      1.870254      1.386138
    17.334669      1.888824      1.359612
    17.364729      1.900442      1.323820
    17.394789      1.900604      1.285008
    17.424849      1.891402      1.249911
    17.454908      1.877939      1.220938
    17.484970      1.864429      1.196703
    17.515030      1.852040      1.174356
    17.545090      1.840803      1.152401
    17.575150      1.830608      1.128222
    17.605209      1.817965      1.099606
    17.635271      1.798889      1.067881
    17.665331      1.770196      1.035663
    17.695391      1.728809      1.008875
    17.725449      1.677189      0.996929
    17.755510      1.625053      1.005550
    17.785570      1.583324      1.032877
    17.815632      1.559361      1.072038
    17.845690      1.555845      1.114462
    17.875750      1.571916      1.153024
    17.905811      1.606252      1.181915
    17.935871      1.656736      1.193844
    17.965933      1.716485      1.180328
    17.995991      1.772640      1.137221
    18.026051      1.811372      1.068595
    18.056110      1.823509      0.985053
    18.086172      1.806362      0.898537
    18.116232      1.760989      0.820347
    18.146292      1.693101      0.761306
    18.176352      1.612721      0.728701
    18.206411      1.532520      0.725060
    18.236473      1.465526      0.745662
    18.266533      1.419275      0.779569
    18.296593      1.393597      0.815107
    18.326653      1.383085      0.844855
    18.356712      1.381800      0.865910
    18.386772      1.384259      0.878290
    18.416834      1.387507      0.885009
    18.446892      1.392442      0.887585
    18.476954      1.398706      0.884672
    18.507013      1.404262      0.876380
    18.537073      1.408720      0.863529
    18.567135      1.411016      0.845087
    18.597193      1.407932      0.822544
    18.627254      1.400545      0.799782
    18.657312      1.392482      0.774829
    18.687374      1.380031      0.742356
    18.717434      1.353935      0.705140
    18.747496      1.311473      0.674800
    18.777555      1.261517      0.660860
    18.807613      1.216543      0.661061
    18.837675      1.180008      0.664954
    18.867735      1.145038      0.667127
    18.897797      1.106555      0.672320
    18.927855      1.067994      0.685478
    18.957914      1.034031      0.705502
    18.987974      1.006256      0.729595
    19.018036      0.984558      0.755730
    19.048096      0.968809      0.783274
    19.078156      0.960180      0.811382
    19.108215      0.959980      0.837815
    19.138275      0.968665      0.858484
    19.168337      0.983226      0.868224
    19.198397      0.996993      0.864851
    19.228456      1.003608      0.850841
    19.258514      0.999240      0.830934
    19.288576      0.982452      0.811501
    19.318636      0.956665      0.798910
    19.348698      0.928041      0.794410
    19.378757      0.899678      0.795539
    19.408815      0.872214      0.800793
    19.438877      0.846430      0.808851
    19.468937      0.821521      0.817967
    19.498999      0.795715      0.828588
    19.529057      0.768959      0.842406
    19.559116      0.742271      0.860518
    19.589176      0.717278      0.883801
    19.619238      0.696789      0.911982
    19.649298      0.683084      0.942293
    19.679358      0.675640      0.971282
    19.709417      0.672787      0.997304
    19.739477      0.673116      1.018742
    19.769539      0.673140      1.034422
    19.799599      0.669048      1.046815
    19.829659      0.660529      1.060384
    19.859718      0.650533      1.077737
    19.889778      0.642265      1.098172
    19.919840      0.636485      1.119172
    19.949900      0.631434      1.139674
    19.979959      0.626092      1.161362
    20.010019      0.622356      1.185754
    20.040079      0.622634      1.211513
    20.070139      0.627298      1.236097
    20.100201      0.635278      1.257440
    20.130259      0.644589      1.274344
    20.160320      0.653139      1.286613
    20.190380      0.658572      1.294376
    20.220440      0.657386      1.299413
    20.250502      0.647660      1.307111
    20.280560      0.632695      1.323217
    20.310621      0.618434      1.348902
    20.340679      0.608733      1.381957
    20.370741      0.605239      1.420055
    20.400801      0.609167      1.461427
    20.430862      0.622103      1.503584
    20.460920      0.644019      1.542072
    20.490980      0.671009      1.573255
    20.521042      0.697805      1.598070
    20.551102      0.722473      1.620840
    20.581163      0.747294      1.645183
    20.611221      0.776517      1.671390
    20.641281      0.813572      1.696275
    20.671341      0.859022      1.714362
    20.701403      0.909231      1.720191
    20.731462      0.956666      1.711576
    20.761522      0.993483      1.693124
    20.791582      1.019200      1.674179
    20.821642      1.041114      1.657800
    20.851704      1.061680      1.638255
    20.881763      1.074578      1.613313
    20.911823      1.075008      1.589111
    20.941881      1.065150      1.573439
    20.971943      1.052217      1.570228
    21.002003      1.043738      1.576684
    21.032064      1.041528      1.586195
    21.062124      1.041943      1.595158
    21.092182      1.041539      1.605260
    21.122244      1.041072      1.620267
    21.152304      1.045213      1.641430
    21.182365      1.058792      1.664765
    21.212423      1.081486      1.682806
    21.242483      1.106872      1.690824
    21.272543      1.127467      1.690547
    21.302605      1.139570      1.687407
    21.332664      1.142864      1.687611
    21.362724      1.141673      1.696956
    21.392784      1.143635      1.715440
    21.422844      1.152049      1.737123
    21.452906      1.163557      1.757782
    21.482965      1.173895      1.778931
    21.513025      1.182710      1.805048
    21.543083      1.193322      1.838859
    21.573145      1.209396      1.880504
    21.603205      1.233819      1.928514
    21.633266      1.267903      1.981111
    21.663326      1.312553      2.037842
    21.693386      1.370418      2.099074
    21.723446      1.446808      2.163101
    21.753506      1.546046      2.223590
    21.783567      1.668318      2.273400
    21.813625      1.812805      2.306467
    21.843687      1.977833      2.315795
    21.873745      2.159338      2.293613
    21.903807      2.350167      2.232479
    21.933867      2.539720      2.126704
    21.963928      2.714558      1.973966
    21.993988      2.859376      1.776403
    22.024046      2.957962      1.542594
    22.054108      2.997688      1.289629
    22.084167      2.975130      1.039278
    22.114229      2.895889      0.812630
    22.144287      2.773965      0.627825
    22.174347      2.632139      0.494853
    22.204407      2.495575      0.408394
    22.234468      2.377800      0.349133
    22.264528      2.274618      0.300000
    22.294588      2.176912      0.257316
    22.324648      2.083067      0.223760
    22.354708      1.995734      0.196929
    22.384769      1.912164      0.172111
    22.414829      1.827592      0.149627
    22.444889      1.739723      0.132002
    22.474949      1.647445      0.122718
    22.505009      1.552478      0.126581
    22.535070      1.460339      0.146671
    22.565130      1.378242      0.181798
    22.595190      1.311399      0.225924
    22.625248      1.259670      0.271378
    22.655310      1.218988      0.313576
    22.685369      1.185511      0.351332
    22.715431      1.156857      0.384228
    22.745489      1.129830      0.411214
    22.775549      1.099401      0.434284
    22.805611      1.064085      0.459299
    22.835670      1.027018      0.490216
    22.865732      0.991842      0.527779
    22.895790      0.961386      0.570830
    22.925850      0.936704      0.617526
    22.955910      0.918512      0.667043
    22.985971      0.908395      0.717433
    23.016031      0.905872      0.765090
    23.046091      0.907585      0.807749
    23.076151      0.909621      0.846822
    23.106211      0.911519      0.886158
    23.136272      0.916246      0.927233
    23.166332      0.925779      0.968091
    23.196392      0.939395      1.006577
    23.226452      0.955352      1.042017
    23.256512      0.971853      1.075248
    23.286572      0.988668      1.108635
    23.316633      1.008296      1.143494
    23.346691      1.033108      1.177703
    23.376753      1.061882      1.208350
    23.406813      1.091909      1.235813
    23.436872      1.123422      1.262592
    23.466934      1.159638      1.288659
    23.496992      1.202422      1.309805
    23.527054      1.248499      1.320549
    23.557112      1.289829      1.319918
    23.587173      1.319731      1.314403
    23.617233      1.338994      1.313833
    23.647295      1.355472      1.323664
    23.677353      1.377176      1.341650
    23.707413      1.407205      1.362104
    23.737474      1.444399      1.379867
    23.767534      1.484727      1.392521
    23.797596      1.524270      1.401766
    23.827652      1.562268      1.411611
    23.857714      1.601554      1.425133
    23.887774      1.646394      1.442415
    23.917835      1.700167      1.460799
    23.947895      1.763954      1.475898
    23.977953      1.835138      1.484237
    24.008015      1.910922      1.487211
    24.038074      1.994122      1.486914
    24.068136      2.089144      1.479543
    24.098196      2.195623      1.458555
    24.128254      2.310650      1.419509
    24.158314      2.431183      1.358075
    24.188375      2.552028      1.269981
    24.218435      2.667033      1.151148
    24.248497      2.764391      0.996346
    24.278557      2.823547      0.809863
    24.308615      2.830353      0.613261
    24.338676      2.789222      0.430134
    24.368736      2.713141      0.273815
    24.398798      2.616044      0.150179
    24.428858      2.510749      0.058148
    24.459        2.4042       -.63926E-2
    24.488976      2.301462     -0.044660
    24.519037      2.210835     -0.059042
    24.549097      2.139715     -0.057610
    24.579159      2.089056     -0.050921
    24.609217      2.055829     -0.045895
    24.639277      2.037553     -0.048437
    24.669338      2.027694     -0.065343
    24.699398      2.015959     -0.097155
    24.729460      1.995676     -0.139222
    24.759518      1.962846     -0.186367
    24.789577      1.915609     -0.231089
    24.819639      1.857545     -0.266190
    24.849699      1.794868     -0.289210
    24.879759      1.731739     -0.301208
    24.909817      1.670466     -0.302944
    24.939878      1.613790     -0.295287
    24.969938      1.564241     -0.280243
    25.000000      1.523856     -0.260917
# 
# 01/09/2018 at 14:13 YAMBO @ anomaly [start]
# 01/09/2018 at 14:16                 [end]
#  
# Timing   [Min/Max/Average]: 02m-36s/02m-36s/02m-36s
#
# .-Input file : yambo.in
# | optics                         # [R OPT] Optics
# | chi                            # [R CHI] Dyson equation for Chi.
# | ElecTemp=0.1723E-4     eV      # Electronic Temperature
# | BoseTemp=0.1723E-4     eV      # Bosonic Temperature
# | FFTGvecs= 1807         RL      # [FFT] Plane-waves
# | X_Threads= 1                   # [OPENMP/X] Number of threads for response functions
# | DIP_Threads= 1                 # [OPENMP/X] Number of threads for dipoles
# | Chimod= "IP"                   # [X] IP/Hartree/ALDA/LRC/BSfxc
# | NGsBlkXd= 1            RL      # [Xd] Response block size
# | % QpntsRXd
# |  1 | 2 |                       # [Xd] Transferred momenta
# | %
# | % BndsRnXd
# |   2 |  7 |                     # [Xd] Polarization function bands
# | %
# | % EnRngeXd
# |  10.00000 | 25.00000 | eV      # [Xd] Energy range
# | %
# | % DmRngeXd
# |   0.10000 |  0.10000 | eV      # [Xd] Damping range
# | %
# | ETStpsXd=  500                 # [Xd] Total Energy steps
# | % LongDrXd
# | 0.1000E-4 | 0.000    | 0.000    |        # [Xd] [cc] Electric Field
# | %
# | % XfnQP_E
# |  5.350000 | 1.000000 | 1.000000 |        # [EXTQP Xd] E parameters  (c/v) eV|adim|adim
# | %
# | DbGdQsize= 0.200000            # [X,DbGd] Size of the region associated to each q-point. In units of the smalles q modulus
