#                                                           
#                                                           
# Y88b    /   e           e    e      888~~\    ,88~-_      
#  Y88b  /   d8b         d8b  d8b     888   |  d888   \     
#   Y88b/   /Y88b       d888bdY88b    888 _/  88888    |    
#    Y8Y   /  Y88b     / Y88Y Y888b   888  \  88888    |    
#     Y   /____Y88b   /   YY   Y888b  888   |  Y888   /     
#    /   /      Y88b /          Y888b 888__/    `88_-~      
#                                                           
#                                                           
#       Version 4.2.0 Revision 14544 Hash 1911cc9           
#                     MPI+SLK Build                         
#               http://www.yambo-code.org                   
#
# Absorption @ Q(1) [q->0 direction] :0.1000E-4  0.000     0.000   
#
#
# - Energies      are  E < 08_ypp_gw_10fs_Xonly/ndb.QP_merged_1_gw_ppa + Fitted E
# - Wavefunctions are Slater exchange(X)+Perdew & Zunger(C)
#
# - The Green`s function is Retarded -
# - Using the Length Gauge -
# - [r,Vnl] *is* included -
#
#   BSK|Identifier              :4161
#      |Dimension               :57
#      |Bands                   :2 - 7
#      |Exchange           [res]: yes
#      |Correlation        [res]: yes
#      |Kernel`s coupling       : no
#      |Exchange           [cpl]: no
#      |Correlation        [cpl]: no
#      |W interaction is bare   : no
#      |ALDA kernel in R-space  : no
#      |RL vectors    [exchange]:531
#      |RL vectors [correlation]:59
#      |E/h energy range    [ev]:-1.000000 - -1.000000
#      |Coupling range     [o/o]: 100.0000 -  100.0000
#    W |Interaction is diagonal : no
#      |Matrix size             :59
#      |Bands                   :1 - 8
#      |e/h energy range    [ev]:-1.000000 - -1.000000
#      |Poles              [o/o]: 100.0000
#      |RL vectors in the sum   :387
#      |[r,Vnl] included        : yes
#      |Field direction         :0.1000E-4  0.000000  0.000000
#      |Coulomb Cutoff          :none
#      |xc-Kernel               :none
#   RIM|RL components      [col]:0
#      |Random points      [col]:0
#  
#   Haydock|Accuracy (requested) [o/o]:  0.02000
#          |Accuracy (reached)   [o/o]:  0.01518
#          |Iteration                 :33
#
#    E/ev[1]      EPS-Im[2]    EPS-Re[3]    EPSo-Im[4]   EPSo-Re[5]   EPS`-Im[6]   EPS`-Re[7]
#
     0.00000      0.00000     61.88057      0.00000     53.85190      0.00000     61.88057
   0.2004E-1    0.9007E-1     61.89       0.5878E-1     53.86       0.9007E-1     61.89   
   0.4008E-1    0.1803        61.92       0.1176        53.88       0.1803        61.92   
   0.6012E-1    0.2709        61.96       0.1767        53.90       0.2709        61.96   
     0.08016      0.36206     62.02295      0.23600     53.94511      0.36206     62.02295
     0.10020      0.45391     62.10334      0.29567     53.99768      0.45391     62.10334
     0.12024      0.54665     62.20192      0.35580     54.06213      0.54665     62.20192
     0.14028      0.64047     62.31887      0.41648     54.13850      0.64047     62.31887
     0.16032      0.73558     62.45441      0.47781     54.22692      0.73558     62.45441
     0.18036      0.83216     62.60882      0.53988     54.32755      0.83216     62.60882
     0.20040      0.93043     62.78239      0.60280     54.44052      0.93043     62.78239
     0.22044      1.03062     62.97546      0.66668     54.56599      1.03062     62.97546
     0.24048      1.13294     63.18843      0.73162     54.70420      1.13294     63.18843
     0.26052      1.23763     63.42171      0.79775     54.85535      1.23763     63.42171
     0.28056      1.34496     63.67580      0.86518     55.01966      1.34496     63.67580
     0.30060      1.45518     63.95123      0.93404     55.19743      1.45518     63.95123
     0.32064      1.56859     64.24856      1.00446     55.38889      1.56859     64.24856
     0.34068      1.68548     64.56844      1.07659     55.59441      1.68548     64.56844
     0.36072      1.80618     64.91154      1.15056     55.81430      1.80618     64.91154
     0.38076      1.93105     65.27863      1.22654     56.04896      1.93105     65.27863
     0.40080      2.06045     65.67054      1.30470     56.29876      2.06045     65.67054
     0.42084      2.19478     66.08817      1.38521     56.56414      2.19478     66.08817
     0.44088      2.33450     66.53248      1.46827     56.84557      2.33450     66.53248
     0.46092      2.48006     67.00452      1.55406     57.14357      2.48006     67.00452
     0.48096      2.63199     67.50546      1.64283     57.45870      2.63199     67.50546
     0.50100      2.79084     68.03654      1.73479     57.79148      2.79084     68.03654
     0.52104      2.95723     68.59911      1.83020     58.14263      2.95723     68.59911
     0.54108      3.13183     69.19464      1.92934     58.51278      3.13183     69.19464
     0.56112      3.31538     69.82473      2.03249     58.90267      3.31538     69.82473
     0.58116      3.50869     70.49112      2.13999     59.31308      3.50869     70.49112
     0.60120      3.71265     71.19569      2.25217     59.74491      3.71265     71.19569
     0.62124      3.92827     71.94052      2.36942     60.19904      3.92827     71.94052
     0.64128      4.15663     72.72784      2.49214     60.67648      4.15663     72.72784
     0.66132      4.39897     73.56010      2.62080     61.17828      4.39897     73.56010
     0.68136      4.65664     74.43997      2.75589     61.70564      4.65664     74.43997
     0.70140      4.93118     75.37038      2.89795     62.25980      4.93118     75.37038
     0.72144      5.22429     76.35452      3.04758     62.84209      5.22429     76.35452
     0.74148      5.53790     77.39593      3.20544     63.45401      5.53790     77.39593
     0.76152      5.87419     78.49844      3.37227     64.09713      5.87419     78.49844
     0.78156      6.23562     79.66629      3.54888     64.77319      6.23562     79.66629
     0.80160      6.62497     80.90420      3.73616     65.48409      6.62497     80.90420
     0.82164      7.04544     82.21730      3.93513     66.23185      7.04544     82.21730
     0.84168      7.50066     83.61132      4.14691     67.01871      7.50066     83.61132
     0.86172      7.99482     85.09261      4.37275     67.84711      7.99482     85.09261
     0.88176      8.53275     86.66818      4.61407     68.71973      8.53275     86.66818
     0.90180      9.12001     88.34589      4.87248     69.63948      9.12001     88.34589
     0.92184      9.76310     90.13447      5.14976     70.60957      9.76310     90.13447
     0.94188     10.46959     92.04369      5.44797     71.63351     10.46959     92.04369
     0.96192     11.24839     94.08450      5.76945     72.71519     11.24839     94.08450
     0.98196     12.10999     96.26919      6.11685     73.85893     12.10999     96.26919
     1.00200     13.06685     98.61156      6.49323     75.06943     13.06685     98.61156
      1.0220      14.1338     101.1272       6.9021      76.3520      14.1338     101.1272
      1.0421      15.3287     103.8337       7.3476      77.7123      15.3287     103.8337
      1.0621      16.6732     106.7508       7.8343      79.1571      16.6732     106.7508
      1.0822      18.1934     109.9011       8.3680      80.6934      18.1934     109.9011
      1.1022      19.9216     113.3097       8.9549      82.3294      19.9216     113.3097
      1.1222      21.8974     117.0053       9.6028      84.0742      21.8974     117.0053
      1.1423      24.1705     121.0196      10.3208      85.9379      24.1705     121.0196
      1.1623      26.8029     125.3881      11.1197      87.9320      26.8029     125.3881
      1.1824      29.8736     130.1496      12.0126      90.0693      29.8736     130.1496
      1.2024      33.4833     135.3453      13.0153      92.3643      33.4833     135.3453
      1.2224      37.7622     141.0170      14.1469      94.8333      37.7622     141.0170
      1.2425      42.8794     147.2028      15.4312      97.4946      42.8794     147.2028
      1.2625      49.0570     153.9296      16.8974     100.3685      49.0570     153.9296
      1.2826      56.5869     161.1984      18.5822     103.4778      56.5869     161.1984
      1.3026      65.8537     168.9571      20.5317     106.8471      65.8537     168.9571
      1.3226      77.3584     177.0525      22.8047     110.5027      77.3584     177.0525
      1.3427      91.7360     185.1459      25.4765     114.4713      91.7360     185.1459
      1.3627     109.7402     192.5723      28.6445     118.7775     109.7402     192.5723
      1.3828     132.1310     198.1300      32.4358     123.4389     132.1310     198.1300
      1.4028     159.3437     199.8431      37.0158     128.4570     159.3437     199.8431
      1.4228     190.7846     194.9151      42.5992     133.8011     190.7846     194.9151
      1.4429     223.8435     180.4216      49.4589     139.3785     223.8435     180.4216
      1.4629     253.5963     155.2593      57.9261     144.9855     253.5963     155.2592
      1.4830     274.9190     122.2492      68.3578     150.2327     274.9190     122.2493
      1.5030     286.3555      87.0497      81.0327     154.4545     286.3558      87.0496
      1.5230     290.8613      53.4746      95.9156     156.6769     290.8616      53.4743
      1.5431     291.5704      20.9418     112.3064     155.8296     291.5701      20.9407
      1.5631     288.0444     -12.6365     128.6927     151.4207     288.0424     -12.6365
      1.5832     277.5489     -46.6256     143.4708     144.3635     277.5478     -46.6222
      1.6032     259.1280     -77.4914     156.5047     136.7072     259.1331     -77.4888
      1.6232     234.8319    -102.1636     169.7905     129.7383     234.8365    -102.1698
      1.6433     207.4857    -119.6994     186.0374     122.2593     207.4799    -119.7060
      1.6633     179.3013    -130.2193     206.4451     110.6228     179.2936    -130.2156
      1.6834     152.2230    -134.2603     228.9989      90.1984     152.2234    -134.2528
      1.7034     127.9069    -133.0306     247.7670      58.0481     127.9122    -133.0280
      1.7234     107.2321    -128.2081     254.7300      16.3778     107.2361    -128.2104
      1.7435      90.2543    -121.3627     245.0132     -26.5833      90.2551    -121.3661
      1.7635      76.5492    -113.6327     221.0123     -61.3943      76.5479    -113.6350
      1.7836      65.5412    -105.7207     190.0904     -83.4066      65.5393    -105.7215
      1.8036      56.6811     -98.0124     159.1256     -93.5430      56.6795     -98.0120
      1.8236      49.5090     -90.6951     131.8638     -95.2408      49.5080     -90.6942
      1.8437      43.6611     -83.8423     109.3985     -91.8704      43.6608     -83.8412
     1.86373     38.85764    -77.46568     91.45945    -85.83502     38.85785    -77.46468
     1.88377     34.88498    -71.54523     77.31180    -78.60915     34.88554    -71.54453
     1.90381     31.58051    -66.04613     66.18200    -71.02132     31.58122    -66.04581
     1.92385     28.82010    -60.92776     57.40764    -63.50489     28.82079    -60.92775
     1.94389     26.50875    -56.14861     50.46576    -56.26672     26.50932    -56.14883
     1.96393     24.57361    -51.66836     44.95847    -49.38837     24.57404    -51.66872
     1.98397     22.95900    -47.44923     40.58827    -42.88438     22.95927    -47.44965
     2.00401     21.62266    -43.45592     37.13498    -36.73417     21.62281    -43.45640
     2.02405     20.53332    -39.65594     34.43749    -30.90026     20.53334    -39.65644
     2.04409     19.66887    -36.01913     32.37999    -25.33760     19.66877    -36.01965
     2.06413     19.01533    -32.51741     30.88243    -19.99863     19.01509    -32.51794
     2.08417     18.56636    -29.12477     29.89434    -14.83644     18.56597    -29.12526
     2.10421     18.32335    -25.81697     29.39101     -9.80616     18.32278    -25.81744
     2.12425     18.29602    -22.57185     29.37233     -4.86652     18.29523    -22.57224
    2.144        18.50       -19.37        29.86       0.1795E-1     18.50       -19.37   
     2.16433     18.97753    -16.19594     30.91785      4.87331     18.97606    -16.19593
     2.18437     19.76267    -13.04189     32.62191      9.70921     19.76077    -13.04139
     2.20441     20.92221     -9.91258     35.10168     14.50626     20.91983     -9.91115
     2.22445     22.53964     -6.83549     38.52848     19.19351     22.53697     -6.83241
     2.24449     24.71845     -3.87771     43.11797     23.61005     24.71621     -3.87196
     2.26453     27.57134     -1.17127     49.10670     27.44493     27.57162     -1.16150
     2.28457     31.18528      1.05747     56.67393     30.16058     31.19270      1.07144
     2.30461     35.54643      2.47746     65.75857     30.94567     35.56870      2.49107
     2.32465     40.43535      2.71992     75.76187     28.83632     40.47799      2.71697
     2.34469     45.40002      1.56879     85.33427     23.19934     45.44893      1.52107
     2.36473     49.96862     -0.86154     92.75794     14.44304     49.97048     -0.96494
     2.38477     53.97692     -4.29759     97.05110      4.05801     53.86990     -4.39738
     2.40481     57.47493     -8.76020     98.55127     -6.57476     57.28451     -8.73554
     2.42485     60.15657    -14.59830     97.91841    -17.17970     60.03848    -14.39838
     2.44489     61.09931    -21.83580     94.92682    -27.89352     61.19664    -21.59877
     2.46493     59.35476    -29.58398     88.86022    -37.94269     59.60137    -29.51594
     2.48497     54.83560    -36.33255     79.91494    -45.71367     55.02757    -36.46353
     2.50501     48.49589    -40.89459     69.53133    -50.10292     48.53026    -41.08836
     2.52505     41.66571    -43.00175     59.36836    -51.22683     41.58319    -43.13939
     2.54509     35.33447    -43.11450     50.44447    -49.95049     35.21451    -43.16385
     2.56513     29.94629    -41.91391     43.08040    -47.21046     29.84231    -41.89386
     2.58517     25.56132    -39.97505     37.19586    -43.70532     25.49580    -39.91642
     2.60521     22.06438    -37.68372     32.56395    -39.87130     22.04048    -37.61359
     2.62525     19.29373    -35.26809     28.94256    -35.95271     19.30399    -35.20609
     2.64529     17.09743    -32.85194     26.12330    -32.07381     17.12902    -32.80904
     2.66533     15.35047    -30.49668     23.94187    -28.28916     15.39013    -30.47527
     2.68537     13.95568    -28.22845     22.27426    -24.61459     13.99379    -28.22500
     2.70541     12.83943    -26.05412     21.02947    -21.04479     12.87113    -26.06315
     2.72545     11.94664    -23.97050     20.14263    -17.56343     11.97045    -23.98718
     2.74549     11.23639    -21.96934     19.56944    -14.14839     11.25246    -21.99032
     2.76553     10.67842    -20.03996     19.28234    -10.77464     10.68737    -20.06318
     2.78557     10.25075    -18.17093     19.26802     -7.41568     10.25306    -18.19512
     2.80561      9.93782    -16.35062     19.52617     -4.04433      9.93361    -16.37492
     2.82565      9.72928    -14.56789     20.06940     -0.63313      9.71821    -14.59145
     2.84569      9.61912    -12.81225     20.92422      2.84511      9.60046    -12.83382
     2.86573      9.60514    -11.07434     22.13325      6.41638      9.57779    -11.09182
     2.88577      9.68832     -9.34644     23.75887     10.10373      9.65129     -9.35622
     2.90581      9.87188     -7.62318     25.88870     13.92396      9.82536     -7.61929
     2.92585     10.15938     -5.90209     28.64303     17.88090     10.10717     -5.87589
     2.94589     10.55151     -4.18222     32.18468     21.95372     10.50515     -4.12435
     2.96593     11.04364     -2.45868     36.73037     26.07535     11.02575     -2.36636
     2.98597     11.63010     -0.71310     42.56007     30.09445     11.66925     -0.60307
     3.00601     12.31958      1.08966     50.01390     33.71069     12.42987      1.17543
     3.02605     13.14987      2.98794     59.45019     36.37344     13.30944      3.00086
     3.04609     14.18504      5.00325     71.10728     37.15084     14.34128      4.91992
     3.06613     15.50218      7.13285     84.78015     34.64623     15.59990      6.96692
     3.08617     17.18548      9.35196     99.27267     27.20405     17.18679      9.14175
      3.1062      19.3283      11.6105     111.9399      13.7911      19.2146      11.4058
      3.1263      22.0316      13.8188     119.2672      -4.5393      21.8023      13.6789
      3.1463      25.3869      15.8267     119.0544     -24.1386      25.0686      15.8231
      3.1663      29.4297      17.4119     112.3107     -40.7870      29.1023      17.6187
      3.1864      34.0715      18.3181     102.3070     -52.4531      33.8947      18.7613
     3.20641     39.07510     18.37988     91.98489    -59.73629     39.25226     18.93612
     3.22645     44.20358     17.65750     82.56993    -64.29454     44.80653     18.00143
     3.24649     49.49694     16.32352     73.93712    -67.30708     50.25989     16.11487
     3.26653     55.28436     14.24426     65.71903    -69.02595     55.69281     13.48446
     3.28657     61.70454     10.71922     58.02869    -69.32327     61.40657      9.86348
     3.30661     68.10587      4.81404     51.32249    -68.34396     67.25398      4.46594
     3.32665     72.93758     -3.76732     45.93559    -66.60555     72.14119     -3.35009
     3.34669     74.60456    -13.91775     41.85473    -64.75399     74.43897    -13.09695
     3.36673     72.82328    -23.56365     38.72221    -63.31984     73.29890    -22.99631
     3.38677     68.86842    -31.22787     35.95139    -62.51911     69.49265    -31.24177
     3.40681     64.31241    -36.90958     32.99162    -62.13724     64.62038    -37.31072
     3.42685     59.83789    -41.46848     29.64971    -61.68596     59.74344    -41.85003
     3.44689     55.18511    -45.51576     26.13450    -60.78239     54.92048    -45.63568
     3.46693     49.93884    -48.90997     22.78247    -59.35457     49.75902    -48.81763
     3.48697     44.21127    -51.17169     19.81551    -57.54395     44.18343    -51.04260
     3.50701     38.53457    -52.13979     17.30025    -55.53651     38.58347    -52.07499
     3.52705     33.34816    -52.07666     15.20875    -53.47670     33.39495    -52.07214
     3.54709     28.77967    -51.34862     13.47761    -51.45376     28.79939    -51.36488
     3.56713     24.78073    -50.19106     12.03981    -49.51503     24.78277    -50.20399
     3.58717     21.30359    -48.72144     10.83683    -47.68162     21.30056    -48.72707
     3.60721     18.33414    -47.03680      9.82128    -45.95964     18.33148    -47.03830
     3.62725     15.84825    -45.24360      8.95597    -44.34739     15.84679    -45.24366
     3.64729     13.79338    -43.43554      8.21202    -42.83928     13.79273    -43.43529
     3.66733     12.10114    -41.67675      7.56695    -41.42802     12.10088    -41.67654
     3.68737     10.70373    -40.00313      7.00327    -40.10600     10.70363    -40.00298
     3.70741      9.54229    -38.43039      6.50718    -38.86572      9.54226    -38.43030
     3.72745      8.56902    -36.96219      6.06774    -37.70012      8.56901    -36.96214
     3.74749      7.74625    -35.59559      5.67617    -36.60275      7.74626    -35.59557
     3.76753      7.04468    -34.32456      5.32537    -35.56773      7.04469    -34.32454
     3.78758      6.44150    -33.14174      5.00954    -34.58976      6.44151    -33.14173
     3.80762      5.91890    -32.03957      4.72392    -33.66409      5.91890    -32.03956
     3.82766      5.46287    -31.01076      4.46455    -32.78644      5.46287    -31.01075
     3.84770      5.06230    -30.04853      4.22811    -31.95300      5.06230    -30.04853
     3.86774      4.70831    -29.14672      4.01183    -31.16032      4.70831    -29.14672
     3.88778      4.39373    -28.29978      3.81332    -30.40533      4.39373    -28.29977
     3.90782      4.11273    -27.50271      3.63059    -29.68522      4.11273    -27.50271
     3.92786      3.86053    -26.75109      3.46191    -28.99751      3.86053    -26.75109
     3.94790      3.63318    -26.04097      3.30578    -28.33990      3.63318    -26.04097
     3.96794      3.42738    -25.36881      3.16091    -27.71034      3.42738    -25.36881
     3.98798      3.24040    -24.73147      3.02620    -27.10696      3.24040    -24.73147
     4.00802      3.06990    -24.12613      2.90064    -26.52805      3.06990    -24.12613
     4.02806      2.91392    -23.55027      2.78339    -25.97207      2.91392    -23.55027
     4.04810      2.77078    -23.00164      2.67368    -25.43760      2.77078    -23.00164
     4.06814      2.63905    -22.47821      2.57085    -24.92334      2.63905    -22.47821
     4.08818      2.51748    -21.97812      2.47428    -24.42807      2.51748    -21.97812
     4.10822      2.40500    -21.49973      2.38347    -23.95073      2.40500    -21.49973
     4.12826      2.30068    -21.04155      2.29793    -23.49027      2.30068    -21.04155
     4.14830      2.20372    -20.60220      2.21724    -23.04578      2.20372    -20.60220
     4.16834      2.11339    -20.18047      2.14101    -22.61640      2.11339    -20.18047
     4.18838      2.02908    -19.77521      2.06892    -22.20131      2.02908    -19.77521
     4.20842      1.95022    -19.38541      2.00064    -21.79979      1.95022    -19.38541
     4.22846      1.87634    -19.01011      1.93590    -21.41115      1.87634    -19.01011
     4.24850      1.80700    -18.64845      1.87444    -21.03473      1.80700    -18.64845
     4.26854      1.74182    -18.29965      1.81604    -20.66994      1.74182    -18.29965
     4.28858      1.68044    -17.96297      1.76048    -20.31623      1.68044    -17.96297
     4.30862      1.62256    -17.63773      1.70757    -19.97309      1.62256    -17.63773
     4.32866      1.56791    -17.32332      1.65714    -19.64000      1.56791    -17.32332
     4.34870      1.51622    -17.01915      1.60902    -19.31653      1.51622    -17.01915
     4.36874      1.46729    -16.72470      1.56308    -19.00224      1.46729    -16.72470
     4.38878      1.42090    -16.43947      1.51916    -18.69674      1.42090    -16.43947
     4.40882      1.37687    -16.16300      1.47716    -18.39964      1.37687    -16.16300
     4.42886      1.33504    -15.89486      1.43695    -18.11059      1.33504    -15.89486
     4.44890      1.29524    -15.63465      1.39844    -17.82926      1.29524    -15.63465
     4.46894      1.25735    -15.38199      1.36151    -17.55533      1.25735    -15.38199
     4.48898      1.22123    -15.13655      1.32608    -17.28849      1.22123    -15.13655
     4.50902      1.18677    -14.89799      1.29207    -17.02849      1.18677    -14.89799
     4.52906      1.15386    -14.66600      1.25940    -16.77503      1.15386    -14.66600
     4.54910      1.12241    -14.44031      1.22799    -16.52787      1.12241    -14.44031
     4.56914      1.09231    -14.22063      1.19778    -16.28678      1.09231    -14.22063
     4.58918      1.06351    -14.00672      1.16871    -16.05153      1.06351    -14.00672
     4.60922      1.03590    -13.79834      1.14071    -15.82189      1.03590    -13.79834
     4.62926      1.00943    -13.59525      1.11373    -15.59768      1.00943    -13.59525
     4.64930      0.98403    -13.39727      1.08772    -15.37869      0.98403    -13.39727
     4.66934      0.95964    -13.20417      1.06264    -15.16474      0.95964    -13.20417
     4.68938      0.93620    -13.01577      1.03843    -14.95566      0.93620    -13.01577
     4.70942      0.91366    -12.83190      1.01506    -14.75128      0.91366    -12.83190
     4.72946      0.89198    -12.65237      0.99248    -14.55143      0.89198    -12.65237
     4.74950      0.87110    -12.47704      0.97067    -14.35597      0.87110    -12.47704
     4.76954      0.85099    -12.30575      0.94957    -14.16476      0.85099    -12.30575
     4.78958      0.83160    -12.13834      0.92917    -13.97764      0.83160    -12.13834
     4.80962      0.81290    -11.97470      0.90942    -13.79450      0.81290    -11.97470
     4.82966      0.79486    -11.81468      0.89031    -13.61521      0.79486    -11.81468
     4.84970      0.77744    -11.65816      0.87180    -13.43964      0.77744    -11.65816
     4.86974      0.76061    -11.50503      0.85386    -13.26768      0.76061    -11.50503
     4.88978      0.74435    -11.35516      0.83648    -13.09922      0.74435    -11.35516
     4.90982      0.72862    -11.20845      0.81963    -12.93415      0.72862    -11.20845
     4.92986      0.71341    -11.06481      0.80329    -12.77237      0.71341    -11.06481
     4.94990      0.69869    -10.92413      0.78743    -12.61378      0.69869    -10.92413
     4.96994      0.68444    -10.78631      0.77203    -12.45829      0.68444    -10.78631
     4.98998      0.67063    -10.65127      0.75709    -12.30581      0.67063    -10.65127
     5.01002      0.65725    -10.51892      0.74257    -12.15626      0.65725    -10.51892
     5.03006      0.64428    -10.38918      0.72847    -12.00954      0.64428    -10.38918
     5.05010      0.63171    -10.26197      0.71477    -11.86559      0.63171    -10.26197
     5.07014      0.61950    -10.13722      0.70145    -11.72431      0.61950    -10.13722
     5.09018      0.60766    -10.01485      0.68849    -11.58565      0.60766    -10.01485
     5.11022      0.59617     -9.89480      0.67589    -11.44952      0.59617     -9.89480
     5.13026      0.58500     -9.77699      0.66363    -11.31586      0.58500     -9.77699
     5.15030      0.57415     -9.66137      0.65170    -11.18461      0.57415     -9.66137
     5.17034      0.56361     -9.54787      0.64008    -11.05569      0.56361     -9.54787
     5.19038      0.55336     -9.43643      0.62877    -10.92906      0.55336     -9.43643
     5.21042      0.54339     -9.32701      0.61776    -10.80464      0.54339     -9.32701
     5.23046      0.53370     -9.21953      0.60702    -10.68239      0.53370     -9.21953
     5.25050      0.52426     -9.11395      0.59656    -10.56224      0.52426     -9.11395
     5.27054      0.51508     -9.01023      0.58637    -10.44415      0.51508     -9.01023
     5.29058      0.50614     -8.90830      0.57643    -10.32806      0.50614     -8.90830
     5.31062      0.49743     -8.80813      0.56674    -10.21392      0.49743     -8.80813
     5.33066      0.48895     -8.70966      0.55728    -10.10169      0.48895     -8.70966
    5.350701     0.480688    -8.612864     0.548059    -9.991316     0.480688    -8.612864
    5.370741     0.472632    -8.517687     0.539059    -9.882757     0.472632    -8.517687
    5.390781     0.464779    -8.424091     0.530274    -9.775967     0.464779    -8.424091
    5.410821     0.457120    -8.332042     0.521697    -9.670906     0.457120    -8.332042
    5.430861     0.449650    -8.241492     0.513323    -9.567532     0.449650    -8.241492
    5.450902     0.442362    -8.152418     0.505144    -9.465802     0.442362    -8.152418
    5.470942     0.435250    -8.064770     0.497156    -9.365685     0.435250    -8.064770
    5.490982     0.428308    -7.978523     0.489350    -9.267141     0.428308    -7.978523
    5.511022     0.421531    -7.893639     0.481723    -9.170133     0.421531    -7.893639
    5.531062     0.414913    -7.810093     0.474268    -9.074630     0.414913    -7.810093
    5.551102     0.408449    -7.727845     0.466980    -8.980593     0.408449    -7.727845
    5.571142     0.402134    -7.646875     0.459855    -8.887995     0.402134    -7.646875
    5.591182     0.395964    -7.567143     0.452887    -8.796799     0.395964    -7.567143
    5.611222     0.389934    -7.488629     0.446072    -8.706977     0.389934    -7.488629
    5.631262     0.384039    -7.411299     0.439405    -8.618497     0.384039    -7.411299
    5.651302     0.378277    -7.335135     0.432882    -8.531331     0.378277    -7.335135
    5.671342     0.372641    -7.260101     0.426499    -8.445450     0.372641    -7.260101
    5.691382     0.367129    -7.186182     0.420251    -8.360832     0.367129    -7.186182
    5.711423     0.361737    -7.113347     0.414136    -8.277444     0.361737    -7.113347
    5.731463     0.356462    -7.041578     0.408149    -8.195264     0.356462    -7.041578
    5.751503     0.351300    -6.970844     0.402286    -8.114266     0.351300    -6.970844
    5.771543     0.346248    -6.901135     0.396545    -8.034424     0.346248    -6.901135
    5.791583     0.341302    -6.832419     0.390921    -7.955715     0.341302    -6.832419
    5.811623     0.336459    -6.764679     0.385412    -7.878117     0.336459    -6.764679
    5.831663     0.331718    -6.697896     0.380015    -7.801604     0.331718    -6.697896
    5.851703     0.327074    -6.632044     0.374726    -7.726158     0.327074    -6.632044
    5.871743     0.322525    -6.567115     0.369542    -7.651759     0.322525    -6.567115
    5.891783     0.318069    -6.503078     0.364462    -7.578382     0.318069    -6.503078
    5.911823     0.313702    -6.439924     0.359481    -7.506012     0.313702    -6.439924
    5.931863     0.309423    -6.377633     0.354598    -7.434623     0.309423    -6.377633
    5.951903     0.305230    -6.316187     0.349810    -7.364197     0.305230    -6.316187
    5.971943     0.301118    -6.255567     0.345114    -7.294720     0.301118    -6.255567
    5.991984     0.297088    -6.195762     0.340509    -7.226168     0.297088    -6.195762
    6.012024     0.293137    -6.136748     0.335991    -7.158528     0.293137    -6.136748
    6.032064     0.289261    -6.078521     0.331559    -7.091783     0.289261    -6.078521
    6.052104     0.285461    -6.021055     0.327210    -7.025911     0.285461    -6.021055
    6.072144     0.281733    -5.964345     0.322943    -6.960900     0.281733    -5.964345
    6.092184     0.278075    -5.908367     0.318755    -6.896736     0.278075    -5.908367
    6.112224     0.274487    -5.853117     0.314644    -6.833396     0.274487    -5.853117
    6.132264     0.270966    -5.798572     0.310609    -6.770874     0.270966    -5.798572
    6.152305     0.267511    -5.744726     0.306648    -6.709144     0.267511    -5.744726
    6.172345     0.264119    -5.691562     0.302758    -6.648202     0.264119    -5.691562
    6.192385     0.260790    -5.639070     0.298939    -6.588027     0.260790    -5.639070
    6.212424     0.257522    -5.587239     0.295188    -6.528610     0.257522    -5.587239
    6.232464     0.254313    -5.536049     0.291504    -6.469934     0.254313    -5.536049
    6.252504     0.251163    -5.485498     0.287886    -6.411989     0.251163    -5.485498
    6.272545     0.248069    -5.435569     0.284331    -6.354757     0.248069    -5.435569
    6.292585     0.245030    -5.386252     0.280838    -6.298230     0.245030    -5.386252
    6.312625     0.242045    -5.337536     0.277407    -6.242395     0.242045    -5.337536
    6.332665     0.239113    -5.289412     0.274035    -6.187240     0.239113    -5.289412
    6.352705     0.236233    -5.241868     0.270721    -6.132751     0.236233    -5.241868
    6.372745     0.233403    -5.194895     0.267464    -6.078919     0.233403    -5.194895
    6.392785     0.230623    -5.148479     0.264262    -6.025734     0.230623    -5.148479
    6.412825     0.227890    -5.102617     0.261115    -5.973181     0.227890    -5.102617
    6.432866     0.225205    -5.057296     0.258020    -5.921250     0.225205    -5.057296
    6.452906     0.222566    -5.012506     0.254978    -5.869934     0.222566    -5.012506
    6.472946     0.219973    -4.968236     0.251986    -5.819221     0.219973    -4.968236
    6.492986     0.217423    -4.924486     0.249044    -5.769100     0.217423    -4.924486
    6.513026     0.214917    -4.881235     0.246151    -5.719563     0.214917    -4.881235
    6.533066     0.212453    -4.838485     0.243305    -5.670598     0.212453    -4.838485
    6.553106     0.210031    -4.796220     0.240505    -5.622197     0.210031    -4.796220
    6.573146     0.207650    -4.754436     0.237752    -5.574350     0.207650    -4.754436
    6.593186     0.205309    -4.713123     0.235042    -5.527051     0.205309    -4.713123
    6.613226     0.203007    -4.672277     0.232376    -5.480288     0.203007    -4.672277
    6.633266     0.200744    -4.631887     0.229753    -5.434052     0.200744    -4.631887
    6.653306     0.198519    -4.591943     0.227172    -5.388340     0.198519    -4.591943
    6.673346     0.196332    -4.552442     0.224632    -5.343135     0.196332    -4.552442
    6.693386     0.194181    -4.513373     0.222131    -5.298437     0.194181    -4.513373
    6.713427     0.192068    -4.474732     0.219670    -5.254233     0.192068    -4.474732
    6.733467     0.189990    -4.436511     0.217248    -5.210519     0.189990    -4.436511
    6.753507     0.187948    -4.398703     0.214863    -5.167283     0.187948    -4.398703
    6.773547     0.185941    -4.361298     0.212515    -5.124521     0.185941    -4.361298
    6.793587     0.183970    -4.324294     0.210203    -5.082225     0.183970    -4.324294
    6.813627     0.182035    -4.287680     0.207927    -5.040388     0.182035    -4.287680
    6.833667     0.180136    -4.251451     0.205685    -4.999000     0.180136    -4.251451
    6.853707     0.178273    -4.215603     0.203477    -4.958060     0.178273    -4.215603
    6.873747     0.176447    -4.180125     0.201303    -4.917557     0.176447    -4.180125
    6.893787     0.174660    -4.145013     0.199162    -4.877484     0.174660    -4.145013
    6.913827     0.172912    -4.110262     0.197052    -4.837837     0.172912    -4.110262
    6.933867     0.171208    -4.075863     0.194974    -4.798607     0.171208    -4.075863
    6.953907     0.169548    -4.041812     0.192927    -4.759791     0.169548    -4.041813
    6.973948     0.167937    -4.008105     0.190911    -4.721380     0.167937    -4.008105
    6.993988     0.166379    -3.974741     0.188924    -4.683372     0.166379    -3.974741
    7.014028     0.164876    -3.941717     0.186965    -4.645755     0.164876    -3.941717
    7.034068     0.163428    -3.909032     0.185036    -4.608529     0.163428    -3.909032
    7.054108     0.162036    -3.876679     0.183135    -4.571684     0.162036    -3.876679
    7.074148     0.160705    -3.844653     0.181261    -4.535218     0.160704    -3.844653
    7.094188     0.159449    -3.812939     0.179414    -4.499122     0.159449    -3.812939
    7.114228     0.158298    -3.781547     0.177594    -4.463394     0.158298    -3.781546
    7.134268     0.157284    -3.750495     0.175800    -4.428028     0.157284    -3.750495
    7.154308     0.156430    -3.719842     0.174031    -4.393017     0.156430    -3.719841
    7.174349     0.155733    -3.689664     0.172287    -4.358356     0.155734    -3.689664
    7.194388     0.155135    -3.660068     0.170568    -4.324043     0.155135    -3.660068
    7.214429     0.154485    -3.631134     0.168874    -4.290071     0.154485    -3.631134
    7.234468     0.153555    -3.602829     0.167203    -4.256437     0.153555    -3.602829
    7.254509     0.152162    -3.574939     0.165555    -4.223134     0.152162    -3.574940
    7.274549     0.150318    -3.547168     0.163930    -4.190156     0.150318    -3.547168
    7.294589     0.148219    -3.519315     0.162328    -4.157504     0.148219    -3.519315
    7.314629     0.146096    -3.491360     0.160748    -4.125168     0.146096    -3.491360
    7.334669     0.144095    -3.463392     0.159190    -4.093146     0.144095    -3.463392
    7.354709     0.142279    -3.435512     0.157653    -4.061434     0.142279    -3.435512
    7.374749     0.140661    -3.407807     0.156137    -4.030027     0.140661    -3.407807
    7.394789     0.139233    -3.380340     0.154642    -3.998920     0.139233    -3.380340
    7.414829     0.137984    -3.353162     0.153167    -3.968112     0.137984    -3.353162
    7.434869     0.136892    -3.326330     0.151712    -3.937596     0.136892    -3.326330
    7.454909     0.135913    -3.299905     0.150276    -3.907370     0.135913    -3.299905
    7.474950     0.134959    -3.273932     0.148860    -3.877428     0.134958    -3.273932
    7.494989     0.133898    -3.248406     0.147463    -3.847769     0.133898    -3.248406
    7.515030     0.132619    -3.223219     0.146085    -3.818386     0.132619    -3.223219
    7.535069     0.131106    -3.198208     0.144725    -3.789278     0.131106    -3.198208
    7.555110     0.129453    -3.173254     0.143383    -3.760439     0.129453    -3.173254
    7.575150     0.127781    -3.148337     0.142059    -3.731868     0.127781    -3.148337
    7.595191     0.126169    -3.123494     0.140752    -3.703558     0.126169    -3.123494
    7.615230     0.124648    -3.098778     0.139463    -3.675511     0.124649    -3.098778
    7.635271     0.123221    -3.074233     0.138190    -3.647717     0.123221    -3.074233
    7.655310     0.121876    -3.049881     0.136934    -3.620179     0.121876    -3.049881
    7.675351     0.120601    -3.025737     0.135695    -3.592888     0.120601    -3.025737
    7.695390     0.119383    -3.001806     0.134472    -3.565844     0.119383    -3.001806
    7.715430     0.118214    -2.978090     0.133265    -3.539043     0.118214    -2.978090
    7.735471     0.117085    -2.954585     0.132074    -3.512483     0.117085    -2.954585
    7.755510     0.115991    -2.931293     0.130898    -3.486159     0.115991    -2.931293
    7.775551     0.114928    -2.908206     0.129737    -3.460068     0.114928    -2.908206
    7.795590     0.113892    -2.885326     0.128592    -3.434209     0.113892    -2.885326
    7.815631     0.112880    -2.862644     0.127461    -3.408577     0.112880    -2.862644
    7.835670     0.111890    -2.840160     0.126345    -3.383170     0.111890    -2.840160
    7.855711     0.110922    -2.817869     0.125244    -3.357985     0.110922    -2.817869
    7.875751     0.109974    -2.795770     0.124156    -3.333019     0.109974    -2.795770
    7.895792     0.109044    -2.773855     0.123083    -3.308270     0.109044    -2.773855
    7.915831     0.108133    -2.752125     0.122024    -3.283733     0.108133    -2.752125
    7.935872     0.107239    -2.730573     0.120979    -3.259406     0.107239    -2.730573
    7.955911     0.106362    -2.709199     0.119947    -3.235289     0.106362    -2.709199
    7.975952     0.105502    -2.687999     0.118928    -3.211375     0.105502    -2.687999
    7.995991     0.104659    -2.666969     0.117923    -3.187665     0.104659    -2.666969
    8.016032     0.103832    -2.646106     0.116932    -3.164155     0.103832    -2.646106
    8.036072     0.103022    -2.625407     0.115953    -3.140841     0.103022    -2.625408
    8.056112     0.102228    -2.604869     0.114987    -3.117723     0.102228    -2.604869
    8.076152     0.101451    -2.584491     0.114034    -3.094796     0.101451    -2.584491
    8.096192     0.100692    -2.564265     0.113093    -3.072058     0.100692    -2.564265
     8.11623      0.09995     -2.54419      0.11217     -3.04951      0.09995     -2.54419
     8.13627      0.09923     -2.52426      0.11125     -3.02714      0.09923     -2.52426
     8.15631      0.09852     -2.50448      0.11035     -3.00496      0.09852     -2.50448
     8.17635      0.09784     -2.48484      0.10946     -2.98296      0.09784     -2.48484
     8.19639      0.09717     -2.46534      0.10858     -2.96113      0.09717     -2.46534
     8.21643      0.09653     -2.44597      0.10771     -2.93948      0.09653     -2.44597
     8.23647      0.09591     -2.42673      0.10686     -2.91800      0.09591     -2.42673
     8.25651      0.09532     -2.40762      0.10602     -2.89669      0.09532     -2.40762
     8.27655      0.09476     -2.38863      0.10519     -2.87555      0.09476     -2.38863
     8.29659      0.09423     -2.36976      0.10438     -2.85457      0.09423     -2.36976
     8.31663      0.09374     -2.35100      0.10358     -2.83375      0.09374     -2.35100
     8.33667      0.09329     -2.33234      0.10279     -2.81310      0.09329     -2.33234
     8.35671      0.09290     -2.31379      0.10201     -2.79260      0.09290     -2.31379
     8.37675      0.09256     -2.29535      0.10124     -2.77225      0.09256     -2.29535
     8.39679      0.09230     -2.27699      0.10049     -2.75206      0.09230     -2.27699
     8.41683      0.09213     -2.25874      0.09976     -2.73202      0.09213     -2.25874
     8.43687      0.09207     -2.24059      0.09903     -2.71213      0.09207     -2.24058
     8.45691      0.09216     -2.22255      0.09832     -2.69238      0.09216     -2.22254
     8.47695      0.09242     -2.20465      0.09763     -2.67277      0.09242     -2.20464
     8.49699      0.09289     -2.18694      0.09695     -2.65330      0.09289     -2.18693
     8.51703      0.09357     -2.16951      0.09629     -2.63396      0.09359     -2.16950
     8.53707      0.09446     -2.15247      0.09565     -2.61476      0.09448     -2.15247
     8.55711      0.09543     -2.13596      0.09502     -2.59569      0.09547     -2.13597
     8.57715      0.09628     -2.12002      0.09441     -2.57674      0.09631     -2.12008
     8.59719      0.09676     -2.10462      0.09383     -2.55791      0.09673     -2.10469
     8.61723      0.09664     -2.08952      0.09326     -2.53921      0.09656     -2.08956
     8.63727      0.09587     -2.07438      0.09272     -2.52062      0.09578     -2.07435
     8.65731      0.09460     -2.05888      0.09221     -2.50214      0.09456     -2.05881
     8.67735      0.09314     -2.04285      0.09172     -2.48376      0.09315     -2.04279
     8.69739      0.09178     -2.02636      0.09127     -2.46548      0.09181     -2.02632
     8.71743      0.09065     -2.00953      0.09086     -2.44730      0.09070     -2.00951
     8.73747      0.08983     -1.99250      0.09048     -2.42921      0.08987     -1.99250
     8.75751      0.08930     -1.97534      0.09016     -2.41120      0.08933     -1.97536
     8.77755      0.08906     -1.95812      0.08989     -2.39327      0.08908     -1.95814
     8.79760      0.08908     -1.94084      0.08969     -2.37541      0.08910     -1.94086
     8.81764      0.08938     -1.92351      0.08956     -2.35760      0.08939     -1.92353
     8.83768      0.08996     -1.90611      0.08952     -2.33984      0.08996     -1.90614
     8.85772      0.09085     -1.88864      0.08960     -2.32212      0.09084     -1.88866
     8.87776      0.09209     -1.87105      0.08981     -2.30443      0.09208     -1.87108
     8.89780      0.09375     -1.85334      0.09018     -2.28676      0.09373     -1.85336
     8.91784      0.09592     -1.83548      0.09076     -2.26910      0.09589     -1.83550
     8.93788      0.09871     -1.81746      0.09161     -2.25143      0.09867     -1.81747
     8.95792      0.10228     -1.79929      0.09279     -2.23376      0.10223     -1.79929
     8.97796      0.10683     -1.78101      0.09439     -2.21610      0.10678     -1.78099
     8.99800      0.11262     -1.76274      0.09655     -2.19848      0.11256     -1.76269
     9.01803      0.11993     -1.74467      0.09943     -2.18097      0.11989     -1.74457
    9.038075     0.129039    -1.727166     0.103228    -2.163733     0.129065    -1.727023
    9.058115     0.140184    -1.710709     0.108185    -2.147043     0.140328    -1.710574
    9.078156     0.153511    -1.695921     0.114504    -2.131399     0.153771    -1.695914
    9.098196     0.169125    -1.683591     0.122213    -2.117594     0.169353    -1.683821
    9.118237     0.187003    -1.674930     0.130859    -2.106707     0.186961    -1.675301
    9.138276     0.206427    -1.671711     0.139099    -2.099751     0.206085    -1.671904
    9.158317     0.225269    -1.675691     0.144647    -2.096802     0.224939    -1.675521
    9.178356     0.239978    -1.687367     0.145262    -2.096104     0.239952    -1.687055
    9.198397     0.246598    -1.704967     0.140460    -2.094561     0.246781    -1.704828
    9.218436     0.242400    -1.724239     0.131950    -2.089694     0.242542    -1.724284
    9.238477     0.227745    -1.739599     0.122192    -2.080902     0.227777    -1.739679
    9.258516     0.206430    -1.746931     0.112951    -2.068944     0.206413    -1.746973
    9.278557     0.183354    -1.745501     0.104996    -2.054946     0.183334    -1.745514
     9.29860      0.16200     -1.73713      0.09845     -2.03983      0.16199     -1.73713
     9.31864      0.14384     -1.72427      0.09315     -2.02421      0.14384     -1.72427
     9.33868      0.12905     -1.70893      0.08887     -2.00843      0.12904     -1.70893
     9.35872      0.11718     -1.69244      0.08538     -1.99271      0.11718     -1.69244
     9.37876      0.10770     -1.67557      0.08251     -1.97712      0.10770     -1.67557
     9.39880      0.10008     -1.65875      0.08011     -1.96174      0.10008     -1.65875
     9.41884      0.09391     -1.64220      0.07808     -1.94657      0.09391     -1.64220
     9.43888      0.08884     -1.62601      0.07633     -1.93161      0.08884     -1.62601
     9.45892      0.08465     -1.61021      0.07481     -1.91686      0.08465     -1.61021
     9.47896      0.08112     -1.59480      0.07347     -1.90232      0.08112     -1.59480
     9.49900      0.07813     -1.57978      0.07227     -1.88796      0.07813     -1.57978
     9.51904      0.07556     -1.56511      0.07120     -1.87378      0.07556     -1.56511
     9.53908      0.07334     -1.55077      0.07022     -1.85978      0.07334     -1.55077
     9.55912      0.07139     -1.53674      0.06932     -1.84593      0.07139     -1.53674
     9.57916      0.06967     -1.52299      0.06848     -1.83223      0.06967     -1.52299
     9.59920      0.06813     -1.50949      0.06770     -1.81868      0.06813     -1.50949
     9.61924      0.06676     -1.49623      0.06698     -1.80527      0.06676     -1.49623
     9.63928      0.06551     -1.48320      0.06629     -1.79198      0.06551     -1.48320
     9.65932      0.06438     -1.47037      0.06564     -1.77882      0.06438     -1.47037
     9.67936      0.06334     -1.45773      0.06502     -1.76578      0.06334     -1.45773
     9.69940      0.06239     -1.44526      0.06442     -1.75286      0.06239     -1.44526
     9.71944      0.06150     -1.43297      0.06386     -1.74004      0.06150     -1.43297
     9.73948      0.06068     -1.42083      0.06331     -1.72734      0.06068     -1.42083
     9.75952      0.05991     -1.40883      0.06278     -1.71473      0.05991     -1.40883
     9.77956      0.05918     -1.39698      0.06227     -1.70223      0.05918     -1.39698
     9.79960      0.05850     -1.38525      0.06178     -1.68983      0.05850     -1.38525
     9.81964      0.05786     -1.37365      0.06130     -1.67752      0.05786     -1.37365
     9.83968      0.05725     -1.36217      0.06084     -1.66530      0.05725     -1.36217
     9.85972      0.05667     -1.35081      0.06038     -1.65318      0.05667     -1.35081
     9.87976      0.05612     -1.33955      0.05994     -1.64114      0.05612     -1.33955
     9.89980      0.05559     -1.32840      0.05951     -1.62919      0.05559     -1.32840
     9.91984      0.05509     -1.31734      0.05909     -1.61732      0.05509     -1.31734
     9.93988      0.05461     -1.30639      0.05868     -1.60554      0.05461     -1.30639
     9.95992      0.05414     -1.29552      0.05828     -1.59383      0.05414     -1.29552
     9.97996      0.05370     -1.28475      0.05789     -1.58221      0.05370     -1.28475
    10.00000      0.05327     -1.27405      0.05750     -1.57066      0.05327     -1.27405
# 
# 05/18/2017 at 16:43 YAMBO_RT @ anomaly [start]
# 05/18/2017 at 16:43                    [end]
#  
# Timing   [Min/Max/Average]: 04s/04s/04s
#
# .-Input file : INPUTS/09_bse_10fs_Xonly
# | optics                         # [R OPT] Optics
# | bse                            # [R BSE] Bethe Salpeter Equation.
# | bsk                            # [R BSK] Bethe Salpeter Equation kernel
# | bss                            # [R BSS] Bethe Salpeter Equation solver
# | em1s                           # [R Xs] Static Inverse Dielectric Matrix
# | BoseTemp= 0.000000     eV      # Bosonic Temperature
# | FFTGvecs=  387         RL      # [FFT] Plane-waves
# | Chimod= "hartree"              # [X] IP/Hartree/ALDA/LRC/BSfxc
# | BSEmod= "retarded"             # [BSE] resonant/retarded/coupling
# | BSKmod= "SEX"                  # [BSE] IP/Hartree/HF/ALDA/SEX/BSfxc
# | BSSmod= "h"                    # [BSS] (h)aydock/(d)iagonalization/(i)nversion/(t)ddft`
# | BSENGexx=  531         RL      # [BSK] Exchange components
# | BSENGBlk=  59          RL      # [BSK] Screened interaction block size
# | #WehCpl                        # [BSK] eh interaction included also in coupling
# | KfnQPdb= "E < 08_ypp_gw_10fs_Xonly/ndb.QP_merged_1_gw_ppa" # [EXTQP BSK BSS] Database
# | % BEnRange
# |   0.00000 | 10.00000 | eV      # [BSS] Energy range
# | %
# | % BDmRange
# |   0.10000 |  0.10000 | eV      # [BSS] Damping range
# | %
# | BEnSteps=  500                 # [BSS] Energy steps
# | % BLongDir
# | 0.1000E-4 | 0.000    | 0.000    |        # [BSS] [cc] Electric Field
# | %
# | % BSEBands
# |   2 |  7 |                     # [BSK] Bands range
# | %
# | BSHayTrs=  0.02000             # [BSS] Relative [o/o] Haydock treshold. Strict(>0)/Average(<0)
# | XfnRTdb= "f @ 0.1 ps < 04_elel+elph_0K/ndb.RT_carriers" # [EXTRT Xd] Database
# | % BndsRnXs
# |   1 |  8 |                     # [Xs] Polarization function bands
# | %
# | NGsBlkXs=  59          RL      # [Xs] Response block size
# | GrFnTpXs= "R"                  # [Xs] Green`s function (T)ordered,(R)etarded,(r)senant,(a)ntiresonant [T, R, r, Ta, Ra]
# | % DmRngeXs
# |   0.10000 |  0.10000 | eV      # [Xs] Damping range
# | %
# | % LongDrXs
# | 0.1000E-4 | 0.000    | 0.000    |        # [Xs] [cc] Electric Field
# | %
