#                                                           
#  ____  ____     _       ____    ____  ______      ___     
# |_  _||_  _|   / \     |_   \  /   _||_   _ \   ."   `.   
#   \ \  / /    / _ \      |   \/   |    | |_) | /  .-.  \  
#    \ \/ /    / ___ \     | |\  /| |    |  __". | |   | |  
#    _|  |_  _/ /   \ \_  _| |_\/_| |_  _| |__) |\  `-"  /  
#   |______||____| |____||_____||_____||_______/  `.___."   
#                                                           
#                                                           
#                                                           
#        Version 4.2.0 Revision 14600 Hash 48c5260          
#                   MPI+SLK+OpenMP Build                    
#                http://www.yambo-code.org                  
#
# EELS @ Q(1)  [q->0 direction]:0.1000E-4  0.000     0.000   
#
#
# - Energies      are  E < 08_ypp_gw_10fs_Gonly/ndb.QP_merged_1_gw_ppa + E Fit
# - Wavefunctions are Slater exchange(X)+Perdew & Zunger(C)
#
# - The Green`s function is Retarded -
# - Using the Length Gauge -
# - [r,Vnl] *is* included -
#
#   BSK|Identifier              :2958
#      |Dimension               :100
#      |Bands                   :2 - 7
#      |Exchange           [res]: yes
#      |Correlation        [res]: yes
#      |Kernel`s coupling       : no
#      |Exchange           [cpl]: no
#      |Correlation        [cpl]: no
#      |W interaction is bare   : no
#      |ALDA kernel in R-space  : no
#      |RL vectors    [exchange]:531
#      |RL vectors [correlation]:59
#      |E/h energy range    [ev]:-1.000000 - -1.000000
#      |Coupling range     [o/o]: 100.0000 -  100.0000
#    W |Interaction is diagonal : no
#      |Matrix size             :59
#      |Bands                   :1 - 8
#      |e/h energy range    [ev]:-1.000000 - -1.000000
#      |Poles              [o/o]: 100.0000
#      |RL vectors in the sum   :387
#      |[r,Vnl] included        : yes
#      |Field direction         :0.1000E-4  0.000000  0.000000
#      |Coulomb Cutoff          :none
#      |xc-Kernel               :none
#   RIM|RL components      [col]:0
#      |Random points      [col]:0
#  
#   Haydock|Accuracy (requested) [o/o]:  0.02000
#          |Accuracy (reached)   [o/o]:  0.01910
#          |Iteration                 :23
#
#    E/ev[1]      EEL-Im[2]    EEL-Re[3]    EELo-Im[4]   EELo-Re[5]   EEL`-Im[6]   EEL`-Re[7]
#
     0.00000     -0.00000     -0.02089     -0.00000     -0.02347     -0.00000     -0.02089
   0.2004E-1    0.1699E-4    -.2088E-1    0.1525E-4    -.2346E-1    0.1699E-4    -.2088E-1
   0.4008E-1    0.3398E-4    -.2088E-1    0.3050E-4    -.2346E-1    0.3398E-4    -.2088E-1
   0.6012E-1    0.5097E-4    -.2087E-1    0.4576E-4    -.2345E-1    0.5097E-4    -.2087E-1
   0.8016E-1    0.6797E-4    -.2086E-1    0.6102E-4    -.2344E-1    0.6797E-4    -.2086E-1
   0.1002       0.8498E-4    -.2084E-1    0.7629E-4    -.2343E-1    0.8498E-4    -.2084E-1
   0.1202       0.1020E-3    -.2082E-1    0.9157E-4    -.2341E-1    0.1020E-3    -.2082E-1
   0.1403       0.1190E-3    -.2080E-1    0.1069E-3    -.2339E-1    0.1190E-3    -.2080E-1
   0.1603       0.1361E-3    -.2078E-1    0.1222E-3    -.2337E-1    0.1361E-3    -.2078E-1
   0.1804       0.1531E-3    -.2075E-1    0.1375E-3    -.2334E-1    0.1531E-3    -.2075E-1
   0.2004       0.1702E-3    -.2071E-1    0.1528E-3    -.2331E-1    0.1702E-3    -.2071E-1
   0.2204       0.1872E-3    -.2068E-1    0.1682E-3    -.2328E-1    0.1872E-3    -.2068E-1
   0.2405       0.2043E-3    -.2064E-1    0.1835E-3    -.2325E-1    0.2043E-3    -.2064E-1
   0.2605       0.2215E-3    -.2060E-1    0.1989E-3    -.2321E-1    0.2215E-3    -.2060E-1
   0.2806       0.2386E-3    -.2055E-1    0.2143E-3    -.2317E-1    0.2386E-3    -.2055E-1
   0.3006       0.2558E-3    -.2050E-1    0.2298E-3    -.2312E-1    0.2558E-3    -.2050E-1
   0.3206       0.2730E-3    -.2045E-1    0.2453E-3    -.2307E-1    0.2730E-3    -.2045E-1
   0.3407       0.2902E-3    -.2039E-1    0.2608E-3    -.2302E-1    0.2902E-3    -.2039E-1
   0.3607       0.3075E-3    -.2033E-1    0.2763E-3    -.2297E-1    0.3075E-3    -.2033E-1
   0.3808       0.3247E-3    -.2027E-1    0.2919E-3    -.2291E-1    0.3247E-3    -.2027E-1
   0.4008       0.3421E-3    -.2020E-1    0.3075E-3    -.2285E-1    0.3421E-3    -.2020E-1
   0.4208       0.3594E-3    -.2013E-1    0.3231E-3    -.2279E-1    0.3594E-3    -.2013E-1
   0.4409       0.3768E-3    -.2006E-1    0.3388E-3    -.2272E-1    0.3768E-3    -.2006E-1
   0.4609       0.3942E-3    -.1998E-1    0.3545E-3    -.2265E-1    0.3942E-3    -.1998E-1
   0.4810       0.4117E-3    -.1990E-1    0.3703E-3    -.2258E-1    0.4117E-3    -.1990E-1
   0.5010       0.4292E-3    -.1982E-1    0.3861E-3    -.2251E-1    0.4292E-3    -.1982E-1
   0.5210       0.4468E-3    -.1973E-1    0.4020E-3    -.2243E-1    0.4468E-3    -.1973E-1
   0.5411       0.4644E-3    -.1964E-1    0.4179E-3    -.2234E-1    0.4644E-3    -.1964E-1
   0.5611       0.4821E-3    -.1954E-1    0.4339E-3    -.2226E-1    0.4821E-3    -.1954E-1
   0.5812       0.4998E-3    -.1944E-1    0.4500E-3    -.2217E-1    0.4998E-3    -.1944E-1
   0.6012       0.5176E-3    -.1934E-1    0.4661E-3    -.2208E-1    0.5176E-3    -.1934E-1
   0.6212       0.5354E-3    -.1924E-1    0.4823E-3    -.2198E-1    0.5354E-3    -.1924E-1
   0.6413       0.5533E-3    -.1913E-1    0.4985E-3    -.2189E-1    0.5533E-3    -.1913E-1
   0.6613       0.5713E-3    -.1902E-1    0.5148E-3    -.2178E-1    0.5713E-3    -.1902E-1
   0.6814       0.5893E-3    -.1890E-1    0.5312E-3    -.2168E-1    0.5893E-3    -.1890E-1
   0.7014       0.6074E-3    -.1878E-1    0.5477E-3    -.2157E-1    0.6074E-3    -.1878E-1
   0.7214       0.6256E-3    -.1866E-1    0.5642E-3    -.2146E-1    0.6256E-3    -.1866E-1
   0.7415       0.6438E-3    -.1853E-1    0.5809E-3    -.2135E-1    0.6438E-3    -.1853E-1
   0.7615       0.6622E-3    -.1840E-1    0.5976E-3    -.2123E-1    0.6622E-3    -.1840E-1
   0.7816       0.6806E-3    -.1826E-1    0.6144E-3    -.2111E-1    0.6806E-3    -.1826E-1
   0.8016       0.6991E-3    -.1813E-1    0.6313E-3    -.2098E-1    0.6991E-3    -.1813E-1
   0.8216       0.7176E-3    -.1798E-1    0.6483E-3    -.2085E-1    0.7176E-3    -.1798E-1
   0.8417       0.7363E-3    -.1784E-1    0.6655E-3    -.2072E-1    0.7363E-3    -.1784E-1
   0.8617       0.7551E-3    -.1769E-1    0.6827E-3    -.2059E-1    0.7551E-3    -.1769E-1
   0.8818       0.7740E-3    -.1754E-1    0.7001E-3    -.2045E-1    0.7740E-3    -.1754E-1
   0.9018       0.7930E-3    -.1738E-1    0.7176E-3    -.2031E-1    0.7930E-3    -.1738E-1
   0.9218       0.8121E-3    -.1722E-1    0.7352E-3    -.2016E-1    0.8121E-3    -.1722E-1
   0.9419       0.8313E-3    -.1705E-1    0.7529E-3    -.2001E-1    0.8313E-3    -.1705E-1
   0.9619       0.8506E-3    -.1689E-1    0.7708E-3    -.1986E-1    0.8506E-3    -.1689E-1
   0.9820       0.8701E-3    -.1671E-1    0.7889E-3    -.1970E-1    0.8701E-3    -.1671E-1
    1.002       0.8897E-3    -.1654E-1    0.8070E-3    -.1955E-1    0.8897E-3    -.1654E-1
    1.022       0.9094E-3    -.1636E-1    0.8254E-3    -.1938E-1    0.9094E-3    -.1636E-1
    1.042       0.9292E-3    -.1617E-1    0.8439E-3    -.1921E-1    0.9292E-3    -.1617E-1
    1.062       0.9492E-3    -.1599E-1    0.8626E-3    -.1904E-1    0.9492E-3    -.1599E-1
    1.082       0.9694E-3    -.1579E-1    0.8815E-3    -.1887E-1    0.9694E-3    -.1579E-1
    1.102       0.9897E-3    -.1560E-1    0.9006E-3    -.1869E-1    0.9897E-3    -.1560E-1
    1.122       0.1010E-2    -.1540E-1    0.9198E-3    -.1851E-1    0.1010E-2    -.1540E-1
    1.142       0.1031E-2    -.1519E-1    0.9393E-3    -.1832E-1    0.1031E-2    -.1519E-1
    1.162       0.1052E-2    -.1499E-1    0.9590E-3    -.1813E-1    0.1052E-2    -.1499E-1
    1.182       0.1073E-2    -.1477E-1    0.9790E-3    -.1794E-1    0.1073E-2    -.1477E-1
    1.202       0.1094E-2    -.1456E-1    0.9992E-3    -.1774E-1    0.1094E-2    -.1456E-1
    1.222       0.1115E-2    -.1433E-1    0.1020E-2    -.1754E-1    0.1115E-2    -.1433E-1
    1.242       0.1137E-2    -.1411E-1    0.1040E-2    -.1733E-1    0.1137E-2    -.1411E-1
    1.263       0.1159E-2    -.1388E-1    0.1061E-2    -.1712E-1    0.1159E-2    -.1388E-1
    1.283       0.1181E-2    -.1365E-1    0.1083E-2    -.1691E-1    0.1181E-2    -.1365E-1
    1.303       0.1203E-2    -.1341E-1    0.1104E-2    -.1669E-1    0.1203E-2    -.1341E-1
    1.323       0.1226E-2    -.1316E-1    0.1126E-2    -.1647E-1    0.1226E-2    -.1316E-1
    1.343       0.1249E-2    -.1292E-1    0.1149E-2    -.1624E-1    0.1249E-2    -.1292E-1
    1.363       0.1272E-2    -.1266E-1    0.1171E-2    -.1601E-1    0.1272E-2    -.1266E-1
    1.383       0.1295E-2    -.1241E-1    0.1194E-2    -.1577E-1    0.1295E-2    -.1241E-1
    1.403       0.1319E-2    -.1215E-1    0.1218E-2    -.1553E-1    0.1319E-2    -.1215E-1
    1.423       0.1343E-2    -.1188E-1    0.1242E-2    -.1529E-1    0.1343E-2    -.1188E-1
    1.443       0.1367E-2    -.1161E-1    0.1266E-2    -.1504E-1    0.1367E-2    -.1161E-1
    1.463       0.1392E-2    -.1133E-1    0.1291E-2    -.1478E-1    0.1392E-2    -.1133E-1
    1.483       0.1417E-2    -.1105E-1    0.1316E-2    -.1452E-1    0.1417E-2    -.1105E-1
    1.503       0.1443E-2    -.1077E-1    0.1342E-2    -.1425E-1    0.1443E-2    -.1077E-1
    1.523       0.1469E-2    -.1048E-1    0.1369E-2    -.1398E-1    0.1469E-2    -.1048E-1
    1.543       0.1495E-2    -.1018E-1    0.1396E-2    -.1371E-1    0.1495E-2    -.1018E-1
    1.563       0.1522E-2    -.9879E-2    0.1424E-2    -.1343E-1    0.1522E-2    -.9879E-2
    1.583       0.1549E-2    -.9572E-2    0.1453E-2    -.1314E-1    0.1550E-2    -.9572E-2
    1.603       0.1577E-2    -.9260E-2    0.1482E-2    -.1285E-1    0.1577E-2    -.9260E-2
    1.623       0.1606E-2    -.8942E-2    0.1512E-2    -.1255E-1    0.1606E-2    -.8942E-2
    1.643       0.1635E-2    -.8619E-2    0.1543E-2    -.1224E-1    0.1635E-2    -.8619E-2
    1.663       0.1664E-2    -.8290E-2    0.1575E-2    -.1193E-1    0.1664E-2    -.8290E-2
    1.683       0.1694E-2    -.7955E-2    0.1608E-2    -.1162E-1    0.1694E-2    -.7955E-2
    1.703       0.1725E-2    -.7614E-2    0.1642E-2    -.1129E-1    0.1725E-2    -.7614E-2
    1.723       0.1756E-2    -.7267E-2    0.1677E-2    -.1096E-1    0.1756E-2    -.7267E-2
    1.743       0.1788E-2    -.6913E-2    0.1714E-2    -.1062E-1    0.1788E-2    -.6913E-2
    1.764       0.1821E-2    -.6553E-2    0.1751E-2    -.1028E-1    0.1820E-2    -.6553E-2
      1.7836       0.0019      -0.0062       0.0018      -0.0099       0.0019      -0.0062
      1.8036       0.0019      -0.0058       0.0018      -0.0096       0.0019      -0.0058
      1.8236       0.0019      -0.0054       0.0019      -0.0092       0.0019      -0.0054
      1.8437       0.0020      -0.0050       0.0019      -0.0088       0.0020      -0.0050
      1.8637       0.0020      -0.0046       0.0020      -0.0084       0.0020      -0.0046
      1.8838       0.0020      -0.0042       0.0020      -0.0080       0.0020      -0.0042
      1.9038       0.0021      -0.0038       0.0021      -0.0076       0.0021      -0.0038
      1.9238       0.0021      -0.0034       0.0021      -0.0072       0.0021      -0.0034
      1.9439       0.0022      -0.0030       0.0022      -0.0068       0.0022      -0.0030
      1.9639       0.0022      -0.0026       0.0022      -0.0064       0.0022      -0.0026
      1.9840       0.0023      -0.0021       0.0023      -0.0059       0.0023      -0.0021
    2.004       0.2304E-2    -.1656E-2    0.2366E-2    -.5454E-2    0.2304E-2    -.1655E-2
    2.024       0.2355E-2    -.1192E-2    0.2438E-2    -.4980E-2    0.2355E-2    -.1192E-2
    2.044       0.2408E-2    -.7189E-3    0.2515E-2    -.4493E-2    0.2408E-2    -.7189E-3
    2.064       0.2463E-2    -.2352E-3    0.2597E-2    -.3991E-2    0.2463E-2    -.2351E-3
    2.084       0.2521E-2    0.2595E-3    0.2686E-2    -.3473E-2    0.2521E-2    0.2595E-3
    2.104       0.2581E-2    0.7656E-3    0.2781E-2    -.2938E-2    0.2581E-2    0.7656E-3
    2.124       0.2645E-2    0.1284E-2    0.2884E-2    -.2385E-2    0.2645E-2    0.1284E-2
    2.144       0.2713E-2    0.1814E-2    0.2997E-2    -.1812E-2    0.2713E-2    0.1814E-2
    2.164       0.2784E-2    0.2358E-2    0.3119E-2    -.1219E-2    0.2784E-2    0.2358E-2
    2.184       0.2859E-2    0.2916E-2    0.3253E-2    -.6020E-3    0.2859E-2    0.2916E-2
    2.204       0.2939E-2    0.3489E-2    0.3401E-2    0.3918E-4    0.2939E-2    0.3489E-2
    2.224       0.3025E-2    0.4077E-2    0.3564E-2    0.7073E-3    0.3025E-2    0.4077E-2
    2.244       0.3116E-2    0.4681E-2    0.3745E-2    0.1405E-2    0.3116E-2    0.4681E-2
    2.265       0.3213E-2    0.5304E-2    0.3948E-2    0.2134E-2    0.3213E-2    0.5304E-2
      2.2846       0.0033       0.0059       0.0042       0.0029       0.0033       0.0059
      2.3046       0.0034       0.0066       0.0044       0.0037       0.0034       0.0066
      2.3246       0.0036       0.0073       0.0047       0.0045       0.0036       0.0073
      2.3447       0.0037       0.0080       0.0051       0.0054       0.0037       0.0080
      2.3647       0.0038       0.0087       0.0054       0.0064       0.0038       0.0087
      2.3848       0.0040       0.0095       0.0059       0.0074       0.0040       0.0095
      2.4048       0.0042       0.0103       0.0064       0.0085       0.0042       0.0103
      2.4248       0.0044       0.0111       0.0071       0.0096       0.0044       0.0111
      2.4449       0.0046       0.0119       0.0078       0.0108       0.0046       0.0119
      2.4649       0.0048       0.0128       0.0087       0.0121       0.0048       0.0128
      2.4850       0.0051       0.0138       0.0098       0.0135       0.0051       0.0138
      2.5050       0.0054       0.0147       0.0112       0.0149       0.0054       0.0147
      2.5250       0.0057       0.0158       0.0129       0.0164       0.0057       0.0158
      2.5451       0.0061       0.0169       0.0150       0.0178       0.0061       0.0169
      2.5651       0.0066       0.0180       0.0177       0.0192       0.0066       0.0180
      2.5852       0.0072       0.0192       0.0211       0.0203       0.0072       0.0192
      2.6052       0.0078       0.0205       0.0252       0.0208       0.0078       0.0205
      2.6253       0.0086       0.0219       0.0302       0.0202       0.0086       0.0219
      2.6453       0.0095       0.0233       0.0356       0.0178       0.0095       0.0233
     2.66533      0.01059      0.02485      0.04052      0.01319      0.01059      0.02485
      2.6854       0.0120       0.0265       0.0436       0.0064       0.0120       0.0265
    2.705       0.1364E-1    0.2814E-1    0.4371E-1    -.1226E-2    0.1364E-1    0.2814E-1
      2.7255       0.0158       0.0298       0.0408      -0.0080       0.0158       0.0298
     2.74549      0.01843      0.03147      0.03600     -0.01259      0.01843      0.03147
     2.76553      0.02178      0.03286      0.03074     -0.01490      0.02178      0.03286
     2.78557      0.02596      0.03374      0.02591     -0.01544      0.02596      0.03374
     2.80561      0.03099      0.03364      0.02187     -0.01484      0.03099      0.03364
     2.82565      0.03664      0.03191      0.01862     -0.01361      0.03664      0.03191
     2.84569      0.04216      0.02792      0.01608     -0.01205      0.04216      0.02792
     2.86573      0.04619      0.02153      0.01411     -0.01036      0.04619      0.02152
      2.8858       0.0473       0.0137       0.0126      -0.0086       0.0473       0.0137
      2.9058       0.0451       0.0063       0.0114      -0.0069       0.0451       0.0062
    2.926       0.4053E-1    0.8177E-3    0.1047E-1    -.5252E-2    0.4053E-1    0.8170E-3
    2.946       0.3503E-1    -.2124E-2    0.9771E-2    -.3618E-2    0.3503E-1    -.2125E-2
    2.966       0.2977E-1    -.2987E-2    0.9241E-2    -.2023E-2    0.2977E-1    -.2987E-2
    2.986       0.2528E-1    -.2454E-2    0.8854E-2    -.4624E-3    0.2528E-1    -.2453E-2
    3.006       0.2166E-1    -.1104E-2    0.8587E-2    0.1073E-2    0.2166E-1    -.1103E-2
    3.026       0.1883E-1    0.6746E-3    0.8426E-2    0.2592E-2    0.1883E-1    0.6756E-3
    3.046       0.1663E-1    0.2651E-2    0.8359E-2    0.4104E-2    0.1663E-1    0.2652E-2
      3.0661       0.0150       0.0047       0.0084       0.0056       0.0150       0.0047
      3.0862       0.0137       0.0068       0.0085       0.0071       0.0137       0.0068
      3.1062       0.0127       0.0088       0.0087       0.0087       0.0127       0.0088
      3.1263       0.0120       0.0108       0.0090       0.0103       0.0120       0.0108
      3.1463       0.0115       0.0128       0.0094       0.0119       0.0115       0.0128
      3.1663       0.0111       0.0147       0.0099       0.0136       0.0111       0.0147
     3.18637      0.01092      0.01669      0.01058      0.01536      0.01092      0.01669
     3.20641      0.01085      0.01864      0.01142      0.01720      0.01085      0.01864
     3.22645      0.01091      0.02060      0.01247      0.01912      0.01091      0.02060
     3.24649      0.01108      0.02259      0.01378      0.02113      0.01108      0.02259
     3.26653      0.01137      0.02462      0.01542      0.02323      0.01137      0.02462
     3.28657      0.01178      0.02670      0.01749      0.02540      0.01178      0.02670
     3.30661      0.01233      0.02884      0.02012      0.02760      0.01233      0.02885
     3.32665      0.01304      0.03108      0.02345      0.02974      0.01304      0.03108
     3.34669      0.01392      0.03341      0.02770      0.03163      0.01392      0.03341
     3.36673      0.01502      0.03585      0.03304      0.03293      0.01502      0.03585
     3.38677      0.01638      0.03843      0.03962      0.03310      0.01638      0.03843
     3.40681      0.01806      0.04115      0.04728      0.03130      0.01806      0.04115
     3.42685      0.02015      0.04402      0.05526      0.02656      0.02015      0.04402
     3.44689      0.02275      0.04703      0.06195      0.01829      0.02276      0.04704
      3.4669       0.0260       0.0502       0.0652       0.0072       0.0260       0.0502
      3.4870       0.0302       0.0534       0.0637      -0.0044       0.0302       0.0534
     3.50701      0.03539      0.05644      0.05800     -0.01396      0.03539      0.05644
     3.52705      0.04204      0.05914      0.05023     -0.02004      0.04205      0.05914
     3.54709      0.05042      0.06094      0.04228     -0.02287      0.05042      0.06094
     3.56713      0.06071      0.06096      0.03521     -0.02337      0.06072      0.06096
     3.58717      0.07269      0.05790      0.02935     -0.02245      0.07270      0.05790
     3.60721      0.08517      0.05025      0.02467     -0.02078      0.08518      0.05025
     3.62725      0.09562      0.03710      0.02096     -0.01876      0.09562      0.03709
     3.64729      0.10067      0.01954      0.01803     -0.01663      0.10067      0.01953
    3.667       0.9828E-1    0.1158E-2    0.1570E-1    -.1452E-1    0.9828E-1    0.1149E-2
     3.68737      0.08944     -0.01393      0.01384     -0.01247      0.08943     -0.01394
     3.70741      0.07731     -0.02363      0.01233     -0.01052      0.07730     -0.02363
      3.7275       0.0649      -0.0283       0.0111      -0.0087       0.0649      -0.0283
      3.7475       0.0539      -0.0292       0.0101      -0.0069       0.0539      -0.0292
      3.7675       0.0447      -0.0280       0.0093      -0.0053       0.0447      -0.0280
    3.788       0.3742E-1    -.2563E-1    0.8547E-2    -.3750E-2    0.3742E-1    -.2562E-1
    3.808       0.3164E-1    -.2269E-1    0.7953E-2    -.2283E-2    0.3164E-1    -.2269E-1
    3.828       0.2707E-1    -.1958E-1    0.7447E-2    -.8897E-3    0.2707E-1    -.1958E-1
    3.848       0.2344E-1    -.1649E-1    0.7015E-2    0.4376E-3    0.2344E-1    -.1649E-1
    3.868       0.2054E-1    -.1350E-1    0.6642E-2    0.1706E-2    0.2053E-1    -.1350E-1
    3.888       0.1819E-1    -.1067E-1    0.6319E-2    0.2922E-2    0.1819E-1    -.1067E-1
      3.9078       0.0163      -0.0080       0.0060       0.0041       0.0163      -0.0080
      3.9279       0.0147      -0.0055       0.0058       0.0052       0.0147      -0.0055
    3.948       0.1339E-1    -.3155E-2    0.5577E-2    0.6309E-2    0.1339E-1    -.3154E-2
    3.968       0.1229E-1    -.9475E-3    0.5387E-2    0.7365E-2    0.1229E-1    -.9463E-3
    3.988       0.1136E-1    0.1132E-2    0.5219E-2    0.8392E-2    0.1136E-1    0.1133E-2
    4.008       0.1057E-1    0.3097E-2    0.5070E-2    0.9392E-2    0.1057E-1    0.3098E-2
      4.0281       0.0099       0.0050       0.0049       0.0104       0.0099       0.0050
      4.0481       0.0093       0.0067       0.0048       0.0113       0.0093       0.0067
      4.0681       0.0088       0.0084       0.0047       0.0123       0.0088       0.0084
      4.0882       0.0084       0.0100       0.0046       0.0132       0.0084       0.0100
      4.1082       0.0080       0.0116       0.0045       0.0141       0.0080       0.0116
      4.1283       0.0077       0.0131       0.0045       0.0150       0.0077       0.0131
      4.1483       0.0074       0.0145       0.0044       0.0158       0.0074       0.0145
      4.1683       0.0071       0.0159       0.0043       0.0167       0.0071       0.0159
      4.1884       0.0069       0.0172       0.0043       0.0175       0.0069       0.0172
      4.2084       0.0066       0.0186       0.0042       0.0184       0.0066       0.0186
    4.228       0.6461E-2    0.1983E-1    0.4180E-2    0.1923E-1    0.6461E-2    0.1984E-1
    4.248       0.6295E-2    0.2108E-1    0.4140E-2    0.2005E-1    0.6295E-2    0.2108E-1
    4.269       0.6146E-2    0.2230E-1    0.4104E-2    0.2087E-1    0.6146E-2    0.2230E-1
    4.289       0.6012E-2    0.2349E-1    0.4072E-2    0.2168E-1    0.6012E-2    0.2349E-1
    4.309       0.5892E-2    0.2466E-1    0.4043E-2    0.2249E-1    0.5892E-2    0.2466E-1
    4.329       0.5784E-2    0.2581E-1    0.4018E-2    0.2329E-1    0.5784E-2    0.2581E-1
    4.349       0.5686E-2    0.2694E-1    0.3995E-2    0.2409E-1    0.5686E-2    0.2695E-1
    4.369       0.5599E-2    0.2806E-1    0.3975E-2    0.2489E-1    0.5599E-2    0.2806E-1
    4.389       0.5520E-2    0.2916E-1    0.3957E-2    0.2568E-1    0.5521E-2    0.2916E-1
    4.409       0.5450E-2    0.3024E-1    0.3942E-2    0.2647E-1    0.5450E-2    0.3025E-1
    4.429       0.5387E-2    0.3132E-1    0.3928E-2    0.2725E-1    0.5387E-2    0.3132E-1
    4.449       0.5330E-2    0.3238E-1    0.3917E-2    0.2803E-1    0.5330E-2    0.3238E-1
    4.469       0.5280E-2    0.3343E-1    0.3907E-2    0.2882E-1    0.5280E-2    0.3344E-1
    4.489       0.5235E-2    0.3448E-1    0.3899E-2    0.2959E-1    0.5236E-2    0.3448E-1
    4.509       0.5196E-2    0.3551E-1    0.3893E-2    0.3037E-1    0.5197E-2    0.3552E-1
    4.529       0.5162E-2    0.3654E-1    0.3887E-2    0.3115E-1    0.5163E-2    0.3654E-1
    4.549       0.5133E-2    0.3757E-1    0.3884E-2    0.3193E-1    0.5134E-2    0.3757E-1
    4.569       0.5109E-2    0.3858E-1    0.3881E-2    0.3270E-1    0.5110E-2    0.3859E-1
    4.589       0.5090E-2    0.3960E-1    0.3880E-2    0.3348E-1    0.5091E-2    0.3960E-1
    4.609       0.5076E-2    0.4061E-1    0.3879E-2    0.3425E-1    0.5078E-2    0.4061E-1
    4.629       0.5068E-2    0.4161E-1    0.3880E-2    0.3503E-1    0.5069E-2    0.4161E-1
    4.649       0.5065E-2    0.4261E-1    0.3881E-2    0.3581E-1    0.5067E-2    0.4262E-1
    4.669       0.5068E-2    0.4362E-1    0.3884E-2    0.3658E-1    0.5071E-2    0.4362E-1
    4.689       0.5080E-2    0.4461E-1    0.3887E-2    0.3736E-1    0.5083E-2    0.4462E-1
    4.709       0.5100E-2    0.4561E-1    0.3892E-2    0.3814E-1    0.5104E-2    0.4561E-1
    4.729       0.5131E-2    0.4660E-1    0.3897E-2    0.3892E-1    0.5136E-2    0.4660E-1
    4.749       0.5174E-2    0.4758E-1    0.3902E-2    0.3970E-1    0.5180E-2    0.4758E-1
    4.770       0.5231E-2    0.4855E-1    0.3909E-2    0.4048E-1    0.5238E-2    0.4855E-1
    4.790       0.5299E-2    0.4950E-1    0.3916E-2    0.4126E-1    0.5307E-2    0.4950E-1
    4.810       0.5370E-2    0.5042E-1    0.3923E-2    0.4205E-1    0.5378E-2    0.5042E-1
    4.830       0.5429E-2    0.5131E-1    0.3932E-2    0.4283E-1    0.5435E-2    0.5130E-1
    4.850       0.5454E-2    0.5217E-1    0.3940E-2    0.4362E-1    0.5457E-2    0.5216E-1
    4.870       0.5436E-2    0.5303E-1    0.3950E-2    0.4441E-1    0.5435E-2    0.5302E-1
    4.890       0.5382E-2    0.5391E-1    0.3960E-2    0.4520E-1    0.5378E-2    0.5391E-1
    4.910       0.5312E-2    0.5483E-1    0.3970E-2    0.4600E-1    0.5307E-2    0.5482E-1
    4.930       0.5242E-2    0.5578E-1    0.3981E-2    0.4679E-1    0.5237E-2    0.5577E-1
    4.950       0.5183E-2    0.5674E-1    0.3992E-2    0.4759E-1    0.5178E-2    0.5674E-1
    4.970       0.5136E-2    0.5773E-1    0.4004E-2    0.4839E-1    0.5132E-2    0.5773E-1
    4.990       0.5100E-2    0.5872E-1    0.4016E-2    0.4919E-1    0.5097E-2    0.5872E-1
    5.010       0.5075E-2    0.5971E-1    0.4029E-2    0.5000E-1    0.5073E-2    0.5971E-1
    5.030       0.5057E-2    0.6071E-1    0.4042E-2    0.5081E-1    0.5055E-2    0.6071E-1
    5.050       0.5046E-2    0.6171E-1    0.4055E-2    0.5162E-1    0.5045E-2    0.6171E-1
    5.070       0.5040E-2    0.6271E-1    0.4069E-2    0.5243E-1    0.5039E-2    0.6271E-1
    5.090       0.5038E-2    0.6371E-1    0.4083E-2    0.5325E-1    0.5037E-2    0.6371E-1
    5.110       0.5039E-2    0.6472E-1    0.4098E-2    0.5407E-1    0.5038E-2    0.6472E-1
    5.130       0.5043E-2    0.6572E-1    0.4112E-2    0.5489E-1    0.5042E-2    0.6572E-1
    5.150       0.5049E-2    0.6673E-1    0.4128E-2    0.5571E-1    0.5048E-2    0.6673E-1
    5.170       0.5057E-2    0.6774E-1    0.4143E-2    0.5654E-1    0.5057E-2    0.6774E-1
    5.190       0.5067E-2    0.6875E-1    0.4159E-2    0.5737E-1    0.5066E-2    0.6875E-1
    5.210       0.5078E-2    0.6976E-1    0.4175E-2    0.5821E-1    0.5078E-2    0.6976E-1
    5.230       0.5091E-2    0.7078E-1    0.4191E-2    0.5905E-1    0.5090E-2    0.7078E-1
    5.251       0.5104E-2    0.7180E-1    0.4208E-2    0.5989E-1    0.5104E-2    0.7180E-1
    5.271       0.5119E-2    0.7282E-1    0.4225E-2    0.6073E-1    0.5119E-2    0.7282E-1
    5.291       0.5135E-2    0.7385E-1    0.4242E-2    0.6158E-1    0.5134E-2    0.7385E-1
    5.311       0.5152E-2    0.7488E-1    0.4260E-2    0.6243E-1    0.5151E-2    0.7488E-1
    5.331       0.5169E-2    0.7591E-1    0.4278E-2    0.6329E-1    0.5168E-2    0.7591E-1
    5.351       0.5188E-2    0.7695E-1    0.4296E-2    0.6414E-1    0.5187E-2    0.7695E-1
    5.371       0.5207E-2    0.7799E-1    0.4314E-2    0.6501E-1    0.5206E-2    0.7799E-1
    5.391       0.5227E-2    0.7903E-1    0.4333E-2    0.6587E-1    0.5226E-2    0.7903E-1
    5.411       0.5247E-2    0.8008E-1    0.4352E-2    0.6674E-1    0.5246E-2    0.8008E-1
    5.431       0.5269E-2    0.8113E-1    0.4371E-2    0.6762E-1    0.5267E-2    0.8113E-1
    5.451       0.5291E-2    0.8219E-1    0.4390E-2    0.6849E-1    0.5289E-2    0.8219E-1
    5.471       0.5313E-2    0.8325E-1    0.4410E-2    0.6937E-1    0.5312E-2    0.8325E-1
    5.491       0.5337E-2    0.8432E-1    0.4430E-2    0.7026E-1    0.5335E-2    0.8431E-1
    5.511       0.5361E-2    0.8539E-1    0.4450E-2    0.7115E-1    0.5359E-2    0.8538E-1
    5.531       0.5386E-2    0.8646E-1    0.4470E-2    0.7204E-1    0.5383E-2    0.8646E-1
    5.551       0.5412E-2    0.8754E-1    0.4491E-2    0.7294E-1    0.5409E-2    0.8754E-1
    5.571       0.5439E-2    0.8863E-1    0.4512E-2    0.7384E-1    0.5435E-2    0.8863E-1
    5.591       0.5466E-2    0.8972E-1    0.4533E-2    0.7475E-1    0.5462E-2    0.8972E-1
    5.611       0.5495E-2    0.9082E-1    0.4555E-2    0.7566E-1    0.5489E-2    0.9081E-1
    5.631       0.5525E-2    0.9192E-1    0.4576E-2    0.7657E-1    0.5518E-2    0.9191E-1
    5.651       0.5556E-2    0.9303E-1    0.4598E-2    0.7749E-1    0.5548E-2    0.9302E-1
    5.671       0.5589E-2    0.9414E-1    0.4620E-2    0.7841E-1    0.5578E-2    0.9413E-1
    5.691       0.5623E-2    0.9526E-1    0.4643E-2    0.7934E-1    0.5610E-2    0.9525E-1
    5.711       0.5660E-2    0.9638E-1    0.4665E-2    0.8027E-1    0.5643E-2    0.9638E-1
    5.731       0.5699E-2    0.9752E-1    0.4688E-2    0.8121E-1    0.5678E-2    0.9751E-1
    5.752       0.5741E-2    0.9865E-1    0.4712E-2    0.8215E-1    0.5714E-2    0.9865E-1
    5.772       0.5788E-2    0.9980E-1    0.4735E-2    0.8310E-1    0.5753E-2    0.9979E-1
    5.792       0.5839E-2    0.1009       0.4759E-2    0.8405E-1    0.5794E-2    0.1009   
    5.812       0.5896E-2    0.1021       0.4783E-2    0.8500E-1    0.5838E-2    0.1021   
    5.832       0.5958E-2    0.1032       0.4807E-2    0.8597E-1    0.5887E-2    0.1033   
    5.852       0.6023E-2    0.1044       0.4831E-2    0.8693E-1    0.5941E-2    0.1044   
    5.872       0.6086E-2    0.1055       0.4856E-2    0.8790E-1    0.6001E-2    0.1056   
    5.892       0.6140E-2    0.1067       0.4881E-2    0.8888E-1    0.6069E-2    0.1068   
    5.912       0.6178E-2    0.1078       0.4907E-2    0.8986E-1    0.6148E-2    0.1080   
    5.932       0.6204E-2    0.1090       0.4932E-2    0.9084E-1    0.6238E-2    0.1092   
    5.952       0.6224E-2    0.1101       0.4958E-2    0.9183E-1    0.6340E-2    0.1103   
    5.972       0.6248E-2    0.1113       0.4984E-2    0.9283E-1    0.6449E-2    0.1115   
    5.992       0.6279E-2    0.1125       0.5011E-2    0.9383E-1    0.6554E-2    0.1126   
    6.012       0.6322E-2    0.1137       0.5038E-2    0.9484E-1    0.6635E-2    0.1137   
    6.032       0.6376E-2    0.1150       0.5065E-2    0.9585E-1    0.6674E-2    0.1148   
    6.052       0.6442E-2    0.1162       0.5092E-2    0.9686E-1    0.6670E-2    0.1159   
    6.072       0.6516E-2    0.1174       0.5120E-2    0.9789E-1    0.6638E-2    0.1171   
    6.092       0.6589E-2    0.1186       0.5148E-2    0.9892E-1    0.6599E-2    0.1183   
    6.112       0.6648E-2    0.1198       0.5177E-2    0.9995E-1    0.6565E-2    0.1195   
    6.132       0.6681E-2    0.1209       0.5205E-2    0.1010       0.6543E-2    0.1208   
    6.152       0.6688E-2    0.1221       0.5235E-2    0.1020       0.6533E-2    0.1220   
    6.172       0.6680E-2    0.1234       0.5264E-2    0.1031       0.6534E-2    0.1233   
    6.192       0.6668E-2    0.1246       0.5294E-2    0.1041       0.6543E-2    0.1246   
    6.212       0.6661E-2    0.1259       0.5325E-2    0.1052       0.6560E-2    0.1259   
    6.232       0.6662E-2    0.1272       0.5355E-2    0.1063       0.6582E-2    0.1272   
    6.253       0.6671E-2    0.1285       0.5387E-2    0.1074       0.6608E-2    0.1285   
    6.273       0.6688E-2    0.1298       0.5418E-2    0.1084       0.6638E-2    0.1298   
    6.293       0.6711E-2    0.1311       0.5450E-2    0.1095       0.6672E-2    0.1312   
    6.313       0.6738E-2    0.1325       0.5483E-2    0.1106       0.6707E-2    0.1325   
    6.333       0.6770E-2    0.1338       0.5516E-2    0.1117       0.6745E-2    0.1339   
    6.353       0.6806E-2    0.1352       0.5550E-2    0.1128       0.6785E-2    0.1352   
    6.373       0.6844E-2    0.1365       0.5584E-2    0.1139       0.6827E-2    0.1366   
    6.393       0.6884E-2    0.1379       0.5619E-2    0.1151       0.6870E-2    0.1379   
    6.413       0.6927E-2    0.1393       0.5654E-2    0.1162       0.6915E-2    0.1393   
    6.433       0.6971E-2    0.1407       0.5690E-2    0.1173       0.6962E-2    0.1407   
    6.453       0.7018E-2    0.1421       0.5727E-2    0.1185       0.7010E-2    0.1421   
    6.473       0.7066E-2    0.1435       0.5764E-2    0.1196       0.7059E-2    0.1435   
    6.493       0.7116E-2    0.1449       0.5802E-2    0.1208       0.7110E-2    0.1449   
    6.513       0.7167E-2    0.1463       0.5840E-2    0.1219       0.7162E-2    0.1464   
    6.533       0.7220E-2    0.1478       0.5880E-2    0.1231       0.7216E-2    0.1478   
    6.553       0.7275E-2    0.1492       0.5920E-2    0.1243       0.7271E-2    0.1492   
    6.573       0.7332E-2    0.1507       0.5961E-2    0.1255       0.7328E-2    0.1507   
    6.593       0.7390E-2    0.1522       0.6003E-2    0.1267       0.7387E-2    0.1522   
    6.613       0.7450E-2    0.1536       0.6046E-2    0.1279       0.7447E-2    0.1537   
    6.633       0.7511E-2    0.1551       0.6090E-2    0.1291       0.7509E-2    0.1552   
    6.653       0.7575E-2    0.1567       0.6135E-2    0.1303       0.7573E-2    0.1567   
    6.673       0.7640E-2    0.1582       0.6181E-2    0.1316       0.7639E-2    0.1582   
    6.693       0.7708E-2    0.1597       0.6229E-2    0.1328       0.7706E-2    0.1597   
    6.713       0.7777E-2    0.1613       0.6277E-2    0.1340       0.7776E-2    0.1613   
    6.733       0.7849E-2    0.1628       0.6327E-2    0.1353       0.7849E-2    0.1628   
    6.754       0.7924E-2    0.1644       0.6379E-2    0.1366       0.7923E-2    0.1644   
    6.774       0.8001E-2    0.1660       0.6432E-2    0.1379       0.8000E-2    0.1660   
    6.794       0.8080E-2    0.1676       0.6486E-2    0.1392       0.8080E-2    0.1676   
    6.814       0.8163E-2    0.1692       0.6543E-2    0.1405       0.8163E-2    0.1692   
    6.834       0.8248E-2    0.1709       0.6601E-2    0.1418       0.8248E-2    0.1709   
    6.854       0.8337E-2    0.1725       0.6662E-2    0.1431       0.8338E-2    0.1725   
    6.874       0.8430E-2    0.1742       0.6725E-2    0.1444       0.8430E-2    0.1742   
    6.894       0.8526E-2    0.1759       0.6790E-2    0.1458       0.8527E-2    0.1759   
    6.914       0.8627E-2    0.1776       0.6858E-2    0.1471       0.8627E-2    0.1776   
    6.934       0.8731E-2    0.1793       0.6928E-2    0.1485       0.8732E-2    0.1793   
      6.9539       0.0088       0.1811       0.0070       0.1499       0.0088       0.1811
      6.9739       0.0090       0.1828       0.0071       0.1513       0.0090       0.1829
      6.9940       0.0091       0.1846       0.0072       0.1527       0.0091       0.1847
      7.0140       0.0092       0.1865       0.0072       0.1542       0.0092       0.1865
      7.0341       0.0093       0.1883       0.0073       0.1556       0.0093       0.1883
      7.0541       0.0095       0.1902       0.0074       0.1571       0.0095       0.1902
      7.0741       0.0096       0.1921       0.0075       0.1586       0.0096       0.1921
      7.0942       0.0098       0.1940       0.0076       0.1601       0.0098       0.1940
      7.1142       0.0099       0.1960       0.0077       0.1616       0.0100       0.1960
      7.1343       0.0101       0.1980       0.0079       0.1632       0.0101       0.1980
      7.1543       0.0103       0.2000       0.0080       0.1647       0.0103       0.2000
      7.1743       0.0105       0.2020       0.0081       0.1663       0.0105       0.2021
      7.1944       0.0107       0.2042       0.0083       0.1680       0.0107       0.2042
      7.2144       0.0110       0.2063       0.0084       0.1696       0.0110       0.2063
      7.2345       0.0112       0.2085       0.0086       0.1713       0.0112       0.2085
      7.2545       0.0115       0.2107       0.0088       0.1730       0.0115       0.2107
      7.2745       0.0118       0.2130       0.0090       0.1748       0.0118       0.2130
      7.2946       0.0121       0.2154       0.0092       0.1766       0.0121       0.2154
      7.3146       0.0125       0.2178       0.0095       0.1784       0.0125       0.2178
      7.3347       0.0128       0.2202       0.0098       0.1803       0.0129       0.2203
     7.35471      0.01327      0.22278      0.01008      0.18221      0.01328      0.22281
     7.37475      0.01374      0.22540      0.01043      0.18419      0.01375      0.22543
     7.39479      0.01426      0.22811      0.01082      0.18623      0.01428      0.22814
     7.41483      0.01484      0.23090      0.01127      0.18834      0.01486      0.23094
     7.43487      0.01549      0.23380      0.01177      0.19052      0.01552      0.23384
     7.45491      0.01623      0.23682      0.01236      0.19278      0.01626      0.23686
     7.47495      0.01707      0.23996      0.01304      0.19513      0.01711      0.24001
     7.49499      0.01802      0.24324      0.01383      0.19758      0.01807      0.24329
     7.51503      0.01912      0.24667      0.01476      0.20014      0.01918      0.24673
     7.53507      0.02040      0.25027      0.01587      0.20282      0.02046      0.25033
     7.55511      0.02188      0.25406      0.01721      0.20562      0.02197      0.25413
     7.57515      0.02363      0.25806      0.01883      0.20855      0.02373      0.25814
     7.59519      0.02570      0.26229      0.02082      0.21161      0.02583      0.26237
     7.61523      0.02819      0.26676      0.02328      0.21478      0.02835      0.26686
     7.63527      0.03119      0.27150      0.02636      0.21801      0.03140      0.27160
     7.65531      0.03486      0.27650      0.03023      0.22119      0.03512      0.27661
     7.67535      0.03939      0.28175      0.03513      0.22413      0.03973      0.28185
     7.69539      0.04503      0.28717      0.04129      0.22646      0.04548      0.28725
     7.71543      0.05213      0.29263      0.04887      0.22757      0.05270      0.29266
     7.73547      0.06109      0.29781      0.05774      0.22651      0.06183      0.29774
     7.75551      0.07240      0.30217      0.06712      0.22215      0.07335      0.30190
     7.77555      0.08651      0.30471      0.07522      0.21373      0.08766      0.30409
     7.79559      0.10353      0.30384      0.07956      0.20186      0.10480      0.30265
     7.81563      0.12263      0.29734      0.07842      0.18906      0.12376      0.29535
     7.83567      0.14123      0.28304      0.07229      0.17843      0.14167      0.28016
     7.85571      0.15468      0.26051      0.06345      0.17177      0.15379      0.25708
     7.87575      0.15816      0.23302      0.05420      0.16897      0.15563      0.22992
     7.89579      0.15024      0.20694      0.04590      0.16900      0.14646      0.20506
     7.91583      0.13413      0.18768      0.03900      0.17079      0.12995      0.18740
     7.93587      0.11499      0.17688      0.03346      0.17353      0.11114      0.17799
     7.95591      0.09667      0.17308      0.02909      0.17671      0.09352      0.17516
     7.97595      0.08094      0.17397      0.02565      0.18006      0.07859      0.17663
     7.99599      0.06815      0.17754      0.02292      0.18341      0.06656      0.18053
     8.01603      0.05799      0.18249      0.02075      0.18669      0.05710      0.18563
     8.03607      0.04998      0.18802      0.01900      0.18987      0.04974      0.19122
     8.05611      0.04366      0.19370      0.01759      0.19293      0.04405      0.19688
     8.07615      0.03865      0.19929      0.01643      0.19588      0.03967      0.20238
     8.09619      0.03463      0.20469      0.01547      0.19872      0.03633      0.20758
     8.11623      0.03140      0.20987      0.01468      0.20147      0.03378      0.21238
     8.13627      0.02877      0.21480      0.01401      0.20412      0.03178      0.21671
     8.15631      0.02661      0.21951      0.01345      0.20670      0.03008      0.22057
     8.17635      0.02484      0.22400      0.01298      0.20920      0.02844      0.22407
     8.19639      0.02338      0.22829      0.01257      0.21164      0.02674      0.22743
     8.21643      0.02217      0.23241      0.01223      0.21403      0.02503      0.23081
     8.23647      0.02118      0.23638      0.01194      0.21637      0.02342      0.23429
     8.25651      0.02037      0.24020      0.01168      0.21867      0.02199      0.23785
     8.27655      0.01972      0.24390      0.01146      0.22093      0.02077      0.24142
     8.29659      0.01922      0.24747      0.01128      0.22316      0.01974      0.24497
     8.31663      0.01886      0.25091      0.01111      0.22536      0.01887      0.24846
     8.33667      0.01862      0.25421      0.01097      0.22754      0.01815      0.25189
     8.35671      0.01847      0.25734      0.01086      0.22969      0.01754      0.25524
     8.37675      0.01837      0.26028      0.01075      0.23183      0.01703      0.25854
     8.39679      0.01822      0.26304      0.01066      0.23395      0.01659      0.26177
     8.41683      0.01795      0.26570      0.01059      0.23606      0.01622      0.26494
     8.43687      0.01755      0.26835      0.01053      0.23815      0.01591      0.26807
     8.45691      0.01708      0.27108      0.01048      0.24024      0.01564      0.27115
     8.47695      0.01661      0.27390      0.01043      0.24232      0.01541      0.27420
     8.49699      0.01619      0.27679      0.01040      0.24439      0.01522      0.27721
     8.51703      0.01583      0.27972      0.01037      0.24646      0.01505      0.28019
     8.53707      0.01553      0.28267      0.01036      0.24853      0.01492      0.28315
     8.55711      0.01530      0.28562      0.01034      0.25059      0.01481      0.28608
     8.57715      0.01511      0.28856      0.01034      0.25265      0.01472      0.28901
     8.59719      0.01497      0.29149      0.01034      0.25471      0.01465      0.29192
     8.61723      0.01486      0.29442      0.01034      0.25678      0.01461      0.29482
     8.63727      0.01478      0.29733      0.01035      0.25884      0.01457      0.29771
     8.65731      0.01473      0.30024      0.01037      0.26091      0.01456      0.30060
     8.67735      0.01470      0.30315      0.01039      0.26298      0.01456      0.30349
     8.69739      0.01470      0.30606      0.01042      0.26506      0.01458      0.30638
     8.71743      0.01471      0.30897      0.01045      0.26714      0.01462      0.30928
     8.73747      0.01474      0.31189      0.01048      0.26923      0.01467      0.31219
     8.75751      0.01479      0.31482      0.01053      0.27132      0.01473      0.31511
     8.77755      0.01486      0.31776      0.01057      0.27343      0.01482      0.31804
     8.79760      0.01495      0.32071      0.01063      0.27554      0.01492      0.32098
     8.81764      0.01506      0.32368      0.01069      0.27766      0.01504      0.32395
     8.83768      0.01519      0.32667      0.01075      0.27980      0.01518      0.32694
     8.85772      0.01534      0.32969      0.01083      0.28194      0.01535      0.32996
     8.87776      0.01552      0.33273      0.01091      0.28410      0.01554      0.33300
     8.89780      0.01573      0.33581      0.01101      0.28628      0.01576      0.33608
     8.91784      0.01598      0.33892      0.01112      0.28847      0.01601      0.33920
     8.93788      0.01626      0.34208      0.01125      0.29067      0.01631      0.34236
     8.95792      0.01658      0.34528      0.01139      0.29290      0.01665      0.34557
     8.97796      0.01696      0.34853      0.01157      0.29514      0.01704      0.34883
     8.99800      0.01740      0.35185      0.01177      0.29740      0.01750      0.35215
     9.01803      0.01792      0.35522      0.01201      0.29969      0.01805      0.35554
     9.03808      0.01853      0.35867      0.01231      0.30199      0.01869      0.35901
     9.05812      0.01927      0.36220      0.01267      0.30430      0.01946      0.36255
     9.07816      0.02014      0.36581      0.01312      0.30661      0.02038      0.36618
     9.09820      0.02121      0.36951      0.01367      0.30890      0.02151      0.36990
     9.11824      0.02252      0.37329      0.01436      0.31113      0.02289      0.37370
     9.13828      0.02414      0.37715      0.01519      0.31322      0.02461      0.37757
     9.15832      0.02616      0.38105      0.01615      0.31509      0.02676      0.38146
     9.17836      0.02870      0.38492      0.01713      0.31661      0.02946      0.38530
     9.19840      0.03191      0.38862      0.01793      0.31772      0.03287      0.38893
     9.21844      0.03593      0.39193      0.01831      0.31853      0.03713      0.39207
     9.23848      0.04086      0.39443      0.01813      0.31933      0.04230      0.39426
     9.25852      0.04661      0.39552      0.01748      0.32040      0.04820      0.39485
     9.27856      0.05264      0.39446      0.01662      0.32189      0.05414      0.39312
     9.29860      0.05777      0.39079      0.01574      0.32376      0.05877      0.38879
     9.31864      0.06041      0.38500      0.01498      0.32591      0.06053      0.38266
     9.33868      0.05952      0.37872      0.01436      0.32822      0.05871      0.37661
     9.35872      0.05550      0.37395      0.01388      0.33063      0.05410      0.37246
     9.37876      0.04983      0.37174      0.01351      0.33309      0.04827      0.37094
     9.39880      0.04398      0.37199      0.01323      0.33556      0.04253      0.37172
     9.41884      0.03876      0.37403      0.01302      0.33805      0.03754      0.37410
     9.43888      0.03445      0.37716      0.01287      0.34054      0.03346      0.37743
     9.45892      0.03101      0.38088      0.01275      0.34303      0.03023      0.38125
     9.47896      0.02831      0.38489      0.01267      0.34552      0.02770      0.38529
     9.49900      0.02619      0.38900      0.01261      0.34800      0.02571      0.38942
     9.51904      0.02453      0.39313      0.01257      0.35049      0.02415      0.39354
     9.53908      0.02322      0.39722      0.01255      0.35298      0.02292      0.39762
     9.55912      0.02218      0.40126      0.01254      0.35547      0.02195      0.40164
     9.57916      0.02135      0.40523      0.01255      0.35797      0.02117      0.40560
     9.59920      0.02069      0.40915      0.01256      0.36047      0.02055      0.40950
     9.61924      0.02017      0.41301      0.01258      0.36298      0.02006      0.41335
     9.63928      0.01974      0.41683      0.01261      0.36549      0.01967      0.41715
     9.65932      0.01941      0.42060      0.01264      0.36801      0.01936      0.42092
     9.67936      0.01915      0.42434      0.01267      0.37054      0.01912      0.42465
     9.69940      0.01895      0.42805      0.01271      0.37308      0.01895      0.42836
     9.71944      0.01881      0.43174      0.01276      0.37562      0.01883      0.43205
     9.73948      0.01871      0.43541      0.01281      0.37818      0.01876      0.43572
     9.75952      0.01866      0.43907      0.01286      0.38075      0.01874      0.43938
     9.77956      0.01865      0.44272      0.01291      0.38332      0.01877      0.44304
     9.79960      0.01869      0.44637      0.01296      0.38591      0.01885      0.44668
     9.81964      0.01878      0.45001      0.01302      0.38851      0.01899      0.45032
     9.83968      0.01893      0.45364      0.01308      0.39112      0.01920      0.45395
     9.85972      0.01914      0.45727      0.01314      0.39375      0.01948      0.45755
     9.87976      0.01942      0.46087      0.01321      0.39639      0.01986      0.46110
     9.89980      0.01978      0.46441      0.01327      0.39904      0.02032      0.46455
     9.91984      0.02022      0.46787      0.01334      0.40170      0.02083      0.46785
     9.93988      0.02071      0.47118      0.01340      0.40438      0.02133      0.47094
     9.95992      0.02118      0.47429      0.01347      0.40707      0.02168      0.47384
     9.97996      0.02149      0.47723      0.01354      0.40977      0.02176      0.47663
    10.00000      0.02154      0.48009      0.01362      0.41249      0.02155      0.47950
# 
# 06/16/2017 at 12:54 YAMBO_RT @ anomaly [start]
# 06/16/2017 at 12:54                    [end]
#  
# Timing   [Min/Max/Average]: 02s/02s/02s
#
# .-Input file : yambo.in
# | optics                         # [R OPT] Optics
# | bse                            # [R BSE] Bethe Salpeter Equation.
# | bsk                            # [R BSK] Bethe Salpeter Equation kernel
# | bss                            # [R BSS] Bethe Salpeter Equation solver
# | em1s                           # [R Xs] Static Inverse Dielectric Matrix
# | BoseTemp= 0.000000     eV      # Bosonic Temperature
# | FFTGvecs=  387         RL      # [FFT] Plane-waves
# | X_Threads= 1                   # [OPENMP/X] Number of threads for response functions
# | DIP_Threads= 1                 # [OPENMP/X] Number of threads for dipoles
# | K_Threads= 1                   # [OPENMP/BSK] Number of threads for response functions
# | Chimod= "hartree"              # [X] IP/Hartree/ALDA/LRC/BSfxc
# | BSEmod= "retarded"             # [BSE] resonant/retarded/coupling
# | BSKmod= "SEX"                  # [BSE] IP/Hartree/HF/ALDA/SEX/BSfxc
# | BSSmod= "h"                    # [BSS] (h)aydock/(d)iagonalization/(i)nversion/(t)ddft`
# | BSENGexx=  531         RL      # [BSK] Exchange components
# | BSENGBlk=  59          RL      # [BSK] Screened interaction block size
# | #WehCpl                        # [BSK] eh interaction included also in coupling
# | KfnQPdb= "E < 08_ypp_gw_10fs_Gonly/ndb.QP_merged_1_gw_ppa" # [EXTQP BSK BSS] Database
# | KfnRTdb= "f @ 0.1 ps < 04_elel+elph_0K/ndb.RT_carriers" # [EXTRT BSK BSS] Database
# | % BEnRange
# |   0.00000 | 10.00000 | eV      # [BSS] Energy range
# | %
# | % BDmRange
# |   0.10000 |  0.10000 | eV      # [BSS] Damping range
# | %
# | BEnSteps=  500                 # [BSS] Energy steps
# | % BLongDir
# | 0.1000E-4 | 0.000    | 0.000    |        # [BSS] [cc] Electric Field
# | %
# | % BSEBands
# |   2 |  7 |                     # [BSK] Bands range
# | %
# | BSHayTrs=  0.02000             # [BSS] Relative [o/o] Haydock treshold. Strict(>0)/Average(<0)
# | % BndsRnXs
# |   1 |  8 |                     # [Xs] Polarization function bands
# | %
# | NGsBlkXs=  59          RL      # [Xs] Response block size
# | GrFnTpXs= "R"                  # [Xs] Green`s function (T)ordered,(R)etarded,(r)senant,(a)ntiresonant [T, R, r, Ta, Ra]
# | % DmRngeXs
# |   0.10000 |  0.10000 | eV      # [Xs] Damping range
# | %
# | % LongDrXs
# | 0.1000E-4 | 0.000    | 0.000    |        # [Xs] [cc] Electric Field
# | %
