#                                                           
#  **    **    **     ****     ****  ******     *******     
# //**  **    ****   /**/**   **/** /*////**   **/////**    
#  //****    **//**  /**//** ** /** /*   /**  **     //**   
#   //**    **  //** /** //***  /** /******  /**      /**   
#    /**   **********/**  //*   /** /*//// **/**      /**   
#    /**  /**//////**/**   /    /** /*    /**//**     **    
#    /**  /**     /**/**        /** /*******  //*******     
#    //   //      // //         //  ///////    ///////      
#                                                           
#        Version 4.2.0 Revision 14544 Hash 1911cc9          
#                      MPI+SLK Build                        
#                http://www.yambo-code.org                  
#
# EELS @ Q(1)  [q->0 direction]:0.1000E-4  0.000     0.000   
#
#
# - Energies      are  E < 08_cohsex_eq/ndb.QP + Fitted E
# - Wavefunctions are Slater exchange(X)+Perdew & Zunger(C)
#
# - The Green`s function is Retarded -
# - Using the Length Gauge -
# - [r,Vnl] *is* included -
#
#   BSK|Identifier              :5436
#      |Dimension               :100
#      |Bands                   :2 - 7
#      |Exchange           [res]: yes
#      |Correlation        [res]: yes
#      |Kernel`s coupling       : no
#      |Exchange           [cpl]: no
#      |Correlation        [cpl]: no
#      |W interaction is bare   : no
#      |ALDA kernel in R-space  : no
#      |RL vectors    [exchange]:531
#      |RL vectors [correlation]:59
#      |E/h energy range    [ev]:-1.000000 - -1.000000
#      |Coupling range     [o/o]: 100.0000 -  100.0000
#    W |Interaction is diagonal : no
#      |Matrix size             :59
#      |Bands                   :1 - 8
#      |e/h energy range    [ev]:-1.000000 - -1.000000
#      |Poles              [o/o]: 100.0000
#      |RL vectors in the sum   :387
#      |[r,Vnl] included        : yes
#      |Field direction         :0.1000E-4  0.000000  0.000000
#      |Coulomb Cutoff          :none
#      |xc-Kernel               :none
#   RIM|RL components      [col]:0
#      |Random points      [col]:0
#  
#   Haydock|Accuracy (requested) [o/o]:  0.02000
#          |Accuracy (reached)   [o/o]:  0.01382
#          |Iteration                 :35
#
#    E/ev[1]      EEL-Im[2]    EEL-Re[3]    EELo-Im[4]   EELo-Re[5]   EEL`-Im[6]   EEL`-Re[7]
#
     0.00000     -0.00000     -0.03538     -0.00000     -0.04141     -0.00000     -0.03538
   0.2004E-1    0.8725E-5    -.3537E-1    0.7336E-5    -.4141E-1    0.8725E-5    -.3537E-1
   0.4008E-1    0.1745E-4    -.3537E-1    0.1467E-4    -.4140E-1    0.1745E-4    -.3537E-1
   0.6012E-1    0.2618E-4    -.3537E-1    0.2201E-4    -.4140E-1    0.2618E-4    -.3537E-1
   0.8016E-1    0.3490E-4    -.3536E-1    0.2935E-4    -.4139E-1    0.3490E-4    -.3536E-1
   0.1002       0.4363E-4    -.3535E-1    0.3668E-4    -.4139E-1    0.4363E-4    -.3535E-1
   0.1202       0.5236E-4    -.3534E-1    0.4402E-4    -.4138E-1    0.5236E-4    -.3534E-1
   0.1403       0.6109E-4    -.3533E-1    0.5136E-4    -.4137E-1    0.6109E-4    -.3533E-1
   0.1603       0.6982E-4    -.3532E-1    0.5870E-4    -.4136E-1    0.6982E-4    -.3532E-1
   0.1804       0.7855E-4    -.3530E-1    0.6605E-4    -.4135E-1    0.7855E-4    -.3530E-1
   0.2004       0.8729E-4    -.3529E-1    0.7339E-4    -.4133E-1    0.8729E-4    -.3529E-1
   0.2204       0.9602E-4    -.3527E-1    0.8073E-4    -.4132E-1    0.9602E-4    -.3527E-1
   0.2405       0.1048E-3    -.3525E-1    0.8808E-4    -.4130E-1    0.1048E-3    -.3525E-1
   0.2605       0.1135E-3    -.3523E-1    0.9543E-4    -.4128E-1    0.1135E-3    -.3523E-1
   0.2806       0.1222E-3    -.3520E-1    0.1028E-3    -.4126E-1    0.1222E-3    -.3520E-1
   0.3006       0.1310E-3    -.3518E-1    0.1101E-3    -.4124E-1    0.1310E-3    -.3518E-1
   0.3206       0.1397E-3    -.3515E-1    0.1175E-3    -.4122E-1    0.1397E-3    -.3515E-1
   0.3407       0.1485E-3    -.3512E-1    0.1248E-3    -.4119E-1    0.1485E-3    -.3512E-1
   0.3607       0.1572E-3    -.3509E-1    0.1322E-3    -.4117E-1    0.1572E-3    -.3509E-1
   0.3808       0.1660E-3    -.3506E-1    0.1396E-3    -.4114E-1    0.1660E-3    -.3506E-1
   0.4008       0.1748E-3    -.3503E-1    0.1469E-3    -.4111E-1    0.1748E-3    -.3503E-1
   0.4208       0.1835E-3    -.3499E-1    0.1543E-3    -.4108E-1    0.1835E-3    -.3499E-1
   0.4409       0.1923E-3    -.3495E-1    0.1617E-3    -.4105E-1    0.1923E-3    -.3495E-1
   0.4609       0.2011E-3    -.3491E-1    0.1690E-3    -.4102E-1    0.2011E-3    -.3491E-1
   0.4810       0.2098E-3    -.3487E-1    0.1764E-3    -.4098E-1    0.2098E-3    -.3487E-1
   0.5010       0.2186E-3    -.3483E-1    0.1838E-3    -.4095E-1    0.2186E-3    -.3483E-1
   0.5210       0.2274E-3    -.3478E-1    0.1912E-3    -.4091E-1    0.2274E-3    -.3478E-1
   0.5411       0.2362E-3    -.3474E-1    0.1986E-3    -.4087E-1    0.2362E-3    -.3474E-1
   0.5611       0.2450E-3    -.3469E-1    0.2060E-3    -.4083E-1    0.2450E-3    -.3469E-1
   0.5812       0.2538E-3    -.3464E-1    0.2134E-3    -.4079E-1    0.2538E-3    -.3464E-1
   0.6012       0.2626E-3    -.3459E-1    0.2208E-3    -.4074E-1    0.2626E-3    -.3459E-1
   0.6212       0.2714E-3    -.3453E-1    0.2282E-3    -.4070E-1    0.2714E-3    -.3453E-1
   0.6413       0.2802E-3    -.3448E-1    0.2356E-3    -.4065E-1    0.2802E-3    -.3448E-1
   0.6613       0.2891E-3    -.3442E-1    0.2430E-3    -.4060E-1    0.2891E-3    -.3442E-1
   0.6814       0.2979E-3    -.3436E-1    0.2505E-3    -.4056E-1    0.2979E-3    -.3436E-1
   0.7014       0.3067E-3    -.3430E-1    0.2579E-3    -.4050E-1    0.3067E-3    -.3430E-1
   0.7214       0.3156E-3    -.3424E-1    0.2653E-3    -.4045E-1    0.3156E-3    -.3424E-1
   0.7415       0.3244E-3    -.3418E-1    0.2728E-3    -.4040E-1    0.3244E-3    -.3418E-1
   0.7615       0.3333E-3    -.3411E-1    0.2802E-3    -.4034E-1    0.3333E-3    -.3411E-1
   0.7816       0.3422E-3    -.3404E-1    0.2877E-3    -.4029E-1    0.3422E-3    -.3404E-1
   0.8016       0.3510E-3    -.3397E-1    0.2951E-3    -.4023E-1    0.3510E-3    -.3397E-1
   0.8216       0.3599E-3    -.3390E-1    0.3026E-3    -.4017E-1    0.3599E-3    -.3390E-1
   0.8417       0.3688E-3    -.3383E-1    0.3101E-3    -.4011E-1    0.3688E-3    -.3383E-1
   0.8617       0.3777E-3    -.3375E-1    0.3176E-3    -.4004E-1    0.3777E-3    -.3375E-1
   0.8818       0.3866E-3    -.3368E-1    0.3250E-3    -.3998E-1    0.3866E-3    -.3368E-1
   0.9018       0.3955E-3    -.3360E-1    0.3325E-3    -.3991E-1    0.3955E-3    -.3360E-1
   0.9218       0.4045E-3    -.3352E-1    0.3401E-3    -.3985E-1    0.4045E-3    -.3352E-1
   0.9419       0.4134E-3    -.3344E-1    0.3476E-3    -.3978E-1    0.4134E-3    -.3344E-1
   0.9619       0.4224E-3    -.3335E-1    0.3551E-3    -.3971E-1    0.4224E-3    -.3335E-1
   0.9820       0.4313E-3    -.3327E-1    0.3626E-3    -.3963E-1    0.4313E-3    -.3327E-1
    1.002       0.4403E-3    -.3318E-1    0.3701E-3    -.3956E-1    0.4403E-3    -.3318E-1
    1.022       0.4493E-3    -.3309E-1    0.3777E-3    -.3949E-1    0.4493E-3    -.3309E-1
    1.042       0.4582E-3    -.3300E-1    0.3853E-3    -.3941E-1    0.4582E-3    -.3300E-1
    1.062       0.4672E-3    -.3291E-1    0.3928E-3    -.3933E-1    0.4672E-3    -.3291E-1
    1.082       0.4762E-3    -.3281E-1    0.4004E-3    -.3925E-1    0.4762E-3    -.3281E-1
    1.102       0.4853E-3    -.3272E-1    0.4080E-3    -.3917E-1    0.4853E-3    -.3272E-1
    1.122       0.4943E-3    -.3262E-1    0.4156E-3    -.3909E-1    0.4943E-3    -.3262E-1
    1.142       0.5033E-3    -.3252E-1    0.4232E-3    -.3900E-1    0.5033E-3    -.3252E-1
    1.162       0.5124E-3    -.3242E-1    0.4308E-3    -.3892E-1    0.5124E-3    -.3242E-1
    1.182       0.5215E-3    -.3231E-1    0.4384E-3    -.3883E-1    0.5215E-3    -.3231E-1
    1.202       0.5305E-3    -.3221E-1    0.4460E-3    -.3874E-1    0.5305E-3    -.3221E-1
    1.222       0.5396E-3    -.3210E-1    0.4537E-3    -.3865E-1    0.5396E-3    -.3210E-1
    1.242       0.5487E-3    -.3199E-1    0.4613E-3    -.3856E-1    0.5487E-3    -.3199E-1
    1.263       0.5579E-3    -.3188E-1    0.4690E-3    -.3847E-1    0.5579E-3    -.3188E-1
    1.283       0.5670E-3    -.3177E-1    0.4767E-3    -.3837E-1    0.5670E-3    -.3177E-1
    1.303       0.5761E-3    -.3165E-1    0.4844E-3    -.3828E-1    0.5761E-3    -.3165E-1
    1.323       0.5853E-3    -.3154E-1    0.4921E-3    -.3818E-1    0.5853E-3    -.3154E-1
    1.343       0.5945E-3    -.3142E-1    0.4998E-3    -.3808E-1    0.5945E-3    -.3142E-1
    1.363       0.6037E-3    -.3130E-1    0.5076E-3    -.3798E-1    0.6037E-3    -.3130E-1
    1.383       0.6129E-3    -.3118E-1    0.5153E-3    -.3788E-1    0.6129E-3    -.3118E-1
    1.403       0.6221E-3    -.3105E-1    0.5231E-3    -.3777E-1    0.6221E-3    -.3105E-1
    1.423       0.6313E-3    -.3093E-1    0.5308E-3    -.3767E-1    0.6313E-3    -.3093E-1
    1.443       0.6406E-3    -.3080E-1    0.5386E-3    -.3756E-1    0.6406E-3    -.3080E-1
    1.463       0.6499E-3    -.3067E-1    0.5464E-3    -.3745E-1    0.6499E-3    -.3067E-1
    1.483       0.6592E-3    -.3054E-1    0.5542E-3    -.3734E-1    0.6592E-3    -.3054E-1
    1.503       0.6685E-3    -.3041E-1    0.5621E-3    -.3723E-1    0.6685E-3    -.3041E-1
    1.523       0.6778E-3    -.3027E-1    0.5699E-3    -.3712E-1    0.6778E-3    -.3027E-1
    1.543       0.6871E-3    -.3014E-1    0.5778E-3    -.3700E-1    0.6871E-3    -.3014E-1
    1.563       0.6965E-3    -.3000E-1    0.5857E-3    -.3688E-1    0.6965E-3    -.3000E-1
    1.583       0.7059E-3    -.2986E-1    0.5936E-3    -.3677E-1    0.7059E-3    -.2986E-1
    1.603       0.7153E-3    -.2971E-1    0.6015E-3    -.3665E-1    0.7153E-3    -.2971E-1
    1.623       0.7247E-3    -.2957E-1    0.6094E-3    -.3653E-1    0.7247E-3    -.2957E-1
    1.643       0.7341E-3    -.2942E-1    0.6174E-3    -.3640E-1    0.7341E-3    -.2942E-1
    1.663       0.7436E-3    -.2928E-1    0.6253E-3    -.3628E-1    0.7436E-3    -.2928E-1
    1.683       0.7531E-3    -.2913E-1    0.6333E-3    -.3615E-1    0.7531E-3    -.2913E-1
    1.703       0.7626E-3    -.2897E-1    0.6413E-3    -.3602E-1    0.7626E-3    -.2897E-1
    1.723       0.7721E-3    -.2882E-1    0.6493E-3    -.3589E-1    0.7721E-3    -.2882E-1
    1.743       0.7817E-3    -.2866E-1    0.6574E-3    -.3576E-1    0.7817E-3    -.2866E-1
    1.764       0.7912E-3    -.2851E-1    0.6655E-3    -.3563E-1    0.7912E-3    -.2851E-1
    1.784       0.8008E-3    -.2835E-1    0.6735E-3    -.3550E-1    0.8008E-3    -.2835E-1
    1.804       0.8104E-3    -.2819E-1    0.6817E-3    -.3536E-1    0.8104E-3    -.2819E-1
    1.824       0.8201E-3    -.2802E-1    0.6898E-3    -.3522E-1    0.8201E-3    -.2802E-1
    1.844       0.8297E-3    -.2786E-1    0.6979E-3    -.3508E-1    0.8297E-3    -.2786E-1
    1.864       0.8394E-3    -.2769E-1    0.7061E-3    -.3494E-1    0.8394E-3    -.2769E-1
    1.884       0.8491E-3    -.2752E-1    0.7143E-3    -.3480E-1    0.8491E-3    -.2752E-1
    1.904       0.8589E-3    -.2735E-1    0.7225E-3    -.3466E-1    0.8589E-3    -.2735E-1
    1.924       0.8687E-3    -.2718E-1    0.7308E-3    -.3451E-1    0.8687E-3    -.2718E-1
    1.944       0.8785E-3    -.2700E-1    0.7391E-3    -.3437E-1    0.8785E-3    -.2700E-1
    1.964       0.8883E-3    -.2682E-1    0.7474E-3    -.3422E-1    0.8883E-3    -.2682E-1
    1.984       0.8981E-3    -.2665E-1    0.7557E-3    -.3407E-1    0.8981E-3    -.2665E-1
    2.004       0.9080E-3    -.2646E-1    0.7640E-3    -.3391E-1    0.9080E-3    -.2646E-1
    2.024       0.9179E-3    -.2628E-1    0.7724E-3    -.3376E-1    0.9179E-3    -.2628E-1
    2.044       0.9279E-3    -.2610E-1    0.7808E-3    -.3360E-1    0.9279E-3    -.2610E-1
    2.064       0.9379E-3    -.2591E-1    0.7893E-3    -.3345E-1    0.9379E-3    -.2591E-1
    2.084       0.9479E-3    -.2572E-1    0.7978E-3    -.3329E-1    0.9479E-3    -.2572E-1
    2.104       0.9579E-3    -.2553E-1    0.8063E-3    -.3313E-1    0.9579E-3    -.2553E-1
    2.124       0.9680E-3    -.2534E-1    0.8148E-3    -.3296E-1    0.9680E-3    -.2534E-1
    2.144       0.9781E-3    -.2514E-1    0.8234E-3    -.3280E-1    0.9781E-3    -.2514E-1
    2.164       0.9882E-3    -.2495E-1    0.8320E-3    -.3263E-1    0.9882E-3    -.2495E-1
    2.184       0.9984E-3    -.2475E-1    0.8406E-3    -.3247E-1    0.9984E-3    -.2475E-1
    2.204       0.1009E-2    -.2455E-1    0.8493E-3    -.3230E-1    0.1009E-2    -.2455E-1
    2.224       0.1019E-2    -.2434E-1    0.8580E-3    -.3213E-1    0.1019E-2    -.2434E-1
    2.244       0.1029E-2    -.2414E-1    0.8667E-3    -.3195E-1    0.1029E-2    -.2414E-1
    2.265       0.1040E-2    -.2393E-1    0.8755E-3    -.3178E-1    0.1040E-2    -.2393E-1
    2.285       0.1050E-2    -.2372E-1    0.8843E-3    -.3160E-1    0.1050E-2    -.2372E-1
    2.305       0.1060E-2    -.2351E-1    0.8932E-3    -.3143E-1    0.1060E-2    -.2351E-1
    2.325       0.1071E-2    -.2330E-1    0.9021E-3    -.3125E-1    0.1071E-2    -.2330E-1
    2.345       0.1081E-2    -.2308E-1    0.9110E-3    -.3106E-1    0.1081E-2    -.2308E-1
    2.365       0.1092E-2    -.2286E-1    0.9200E-3    -.3088E-1    0.1092E-2    -.2286E-1
    2.385       0.1102E-2    -.2264E-1    0.9290E-3    -.3070E-1    0.1102E-2    -.2264E-1
    2.405       0.1113E-2    -.2242E-1    0.9381E-3    -.3051E-1    0.1113E-2    -.2242E-1
    2.425       0.1124E-2    -.2220E-1    0.9472E-3    -.3032E-1    0.1124E-2    -.2220E-1
    2.445       0.1134E-2    -.2197E-1    0.9564E-3    -.3013E-1    0.1134E-2    -.2197E-1
    2.465       0.1145E-2    -.2174E-1    0.9656E-3    -.2994E-1    0.1145E-2    -.2174E-1
    2.485       0.1156E-2    -.2151E-1    0.9749E-3    -.2974E-1    0.1156E-2    -.2151E-1
    2.505       0.1167E-2    -.2128E-1    0.9842E-3    -.2955E-1    0.1167E-2    -.2128E-1
    2.525       0.1178E-2    -.2104E-1    0.9936E-3    -.2935E-1    0.1178E-2    -.2104E-1
    2.545       0.1189E-2    -.2081E-1    0.1003E-2    -.2915E-1    0.1189E-2    -.2081E-1
    2.565       0.1200E-2    -.2057E-1    0.1013E-2    -.2895E-1    0.1200E-2    -.2057E-1
    2.585       0.1211E-2    -.2033E-1    0.1022E-2    -.2874E-1    0.1211E-2    -.2033E-1
    2.605       0.1222E-2    -.2008E-1    0.1032E-2    -.2854E-1    0.1222E-2    -.2008E-1
    2.625       0.1234E-2    -.1984E-1    0.1041E-2    -.2833E-1    0.1234E-2    -.1984E-1
    2.645       0.1245E-2    -.1959E-1    0.1051E-2    -.2812E-1    0.1245E-2    -.1959E-1
    2.665       0.1256E-2    -.1934E-1    0.1061E-2    -.2791E-1    0.1256E-2    -.1934E-1
    2.685       0.1268E-2    -.1909E-1    0.1071E-2    -.2769E-1    0.1268E-2    -.1909E-1
    2.705       0.1279E-2    -.1883E-1    0.1081E-2    -.2748E-1    0.1279E-2    -.1883E-1
    2.725       0.1291E-2    -.1857E-1    0.1091E-2    -.2726E-1    0.1291E-2    -.1857E-1
    2.745       0.1302E-2    -.1831E-1    0.1101E-2    -.2704E-1    0.1302E-2    -.1831E-1
    2.766       0.1314E-2    -.1805E-1    0.1111E-2    -.2682E-1    0.1314E-2    -.1805E-1
    2.786       0.1326E-2    -.1779E-1    0.1122E-2    -.2660E-1    0.1326E-2    -.1779E-1
    2.806       0.1338E-2    -.1752E-1    0.1132E-2    -.2637E-1    0.1338E-2    -.1752E-1
    2.826       0.1350E-2    -.1725E-1    0.1142E-2    -.2614E-1    0.1350E-2    -.1725E-1
    2.846       0.1362E-2    -.1698E-1    0.1153E-2    -.2591E-1    0.1362E-2    -.1698E-1
    2.866       0.1374E-2    -.1670E-1    0.1164E-2    -.2568E-1    0.1374E-2    -.1670E-1
    2.886       0.1387E-2    -.1643E-1    0.1175E-2    -.2545E-1    0.1387E-2    -.1643E-1
    2.906       0.1399E-2    -.1615E-1    0.1185E-2    -.2521E-1    0.1399E-2    -.1615E-1
    2.926       0.1412E-2    -.1587E-1    0.1196E-2    -.2497E-1    0.1412E-2    -.1587E-1
    2.946       0.1424E-2    -.1558E-1    0.1208E-2    -.2473E-1    0.1424E-2    -.1558E-1
    2.966       0.1437E-2    -.1530E-1    0.1219E-2    -.2449E-1    0.1437E-2    -.1530E-1
    2.986       0.1450E-2    -.1501E-1    0.1230E-2    -.2424E-1    0.1450E-2    -.1501E-1
    3.006       0.1463E-2    -.1472E-1    0.1242E-2    -.2400E-1    0.1463E-2    -.1472E-1
    3.026       0.1476E-2    -.1442E-1    0.1253E-2    -.2375E-1    0.1476E-2    -.1442E-1
    3.046       0.1489E-2    -.1413E-1    0.1265E-2    -.2349E-1    0.1489E-2    -.1413E-1
    3.066       0.1503E-2    -.1383E-1    0.1277E-2    -.2324E-1    0.1503E-2    -.1383E-1
    3.086       0.1516E-2    -.1352E-1    0.1289E-2    -.2298E-1    0.1516E-2    -.1352E-1
    3.106       0.1530E-2    -.1322E-1    0.1302E-2    -.2272E-1    0.1530E-2    -.1322E-1
    3.126       0.1544E-2    -.1291E-1    0.1314E-2    -.2246E-1    0.1544E-2    -.1291E-1
    3.146       0.1558E-2    -.1260E-1    0.1327E-2    -.2220E-1    0.1558E-2    -.1260E-1
    3.166       0.1573E-2    -.1229E-1    0.1340E-2    -.2193E-1    0.1573E-2    -.1229E-1
    3.186       0.1587E-2    -.1197E-1    0.1353E-2    -.2166E-1    0.1587E-2    -.1197E-1
    3.206       0.1602E-2    -.1165E-1    0.1366E-2    -.2139E-1    0.1602E-2    -.1165E-1
    3.226       0.1617E-2    -.1133E-1    0.1380E-2    -.2111E-1    0.1617E-2    -.1133E-1
    3.246       0.1632E-2    -.1101E-1    0.1394E-2    -.2084E-1    0.1632E-2    -.1101E-1
    3.267       0.1648E-2    -.1068E-1    0.1408E-2    -.2056E-1    0.1648E-2    -.1068E-1
    3.287       0.1664E-2    -.1035E-1    0.1423E-2    -.2027E-1    0.1664E-2    -.1035E-1
    3.307       0.1680E-2    -.1001E-1    0.1437E-2    -.1999E-1    0.1680E-2    -.1001E-1
    3.327       0.1697E-2    -.9674E-2    0.1453E-2    -.1970E-1    0.1697E-2    -.9674E-2
    3.347       0.1714E-2    -.9333E-2    0.1468E-2    -.1941E-1    0.1714E-2    -.9333E-2
    3.367       0.1732E-2    -.8988E-2    0.1484E-2    -.1911E-1    0.1732E-2    -.8988E-2
    3.387       0.1750E-2    -.8641E-2    0.1500E-2    -.1881E-1    0.1750E-2    -.8641E-2
    3.407       0.1768E-2    -.8289E-2    0.1517E-2    -.1851E-1    0.1768E-2    -.8289E-2
    3.427       0.1788E-2    -.7934E-2    0.1534E-2    -.1821E-1    0.1788E-2    -.7934E-2
    3.447       0.1808E-2    -.7575E-2    0.1552E-2    -.1790E-1    0.1808E-2    -.7575E-2
    3.467       0.1829E-2    -.7213E-2    0.1571E-2    -.1759E-1    0.1829E-2    -.7213E-2
    3.487       0.1852E-2    -.6846E-2    0.1590E-2    -.1727E-1    0.1852E-2    -.6846E-2
    3.507       0.1875E-2    -.6475E-2    0.1609E-2    -.1695E-1    0.1875E-2    -.6475E-2
    3.527       0.1901E-2    -.6100E-2    0.1630E-2    -.1663E-1    0.1901E-2    -.6100E-2
    3.547       0.1928E-2    -.5721E-2    0.1652E-2    -.1630E-1    0.1928E-2    -.5721E-2
    3.567       0.1957E-2    -.5337E-2    0.1674E-2    -.1597E-1    0.1957E-2    -.5337E-2
    3.587       0.1990E-2    -.4949E-2    0.1698E-2    -.1563E-1    0.1990E-2    -.4949E-2
    3.607       0.2026E-2    -.4556E-2    0.1722E-2    -.1529E-1    0.2026E-2    -.4556E-2
    3.627       0.2067E-2    -.4159E-2    0.1749E-2    -.1495E-1    0.2067E-2    -.4159E-2
    3.647       0.2114E-2    -.3758E-2    0.1777E-2    -.1460E-1    0.2114E-2    -.3758E-2
    3.667       0.2169E-2    -.3354E-2    0.1806E-2    -.1424E-1    0.2169E-2    -.3354E-2
    3.687       0.2233E-2    -.2951E-2    0.1838E-2    -.1388E-1    0.2233E-2    -.2951E-2
    3.707       0.2308E-2    -.2552E-2    0.1872E-2    -.1352E-1    0.2308E-2    -.2552E-2
    3.727       0.2392E-2    -.2162E-2    0.1910E-2    -.1314E-1    0.2392E-2    -.2162E-2
    3.747       0.2481E-2    -.1790E-2    0.1951E-2    -.1276E-1    0.2481E-2    -.1790E-2
    3.768       0.2562E-2    -.1440E-2    0.1996E-2    -.1238E-1    0.2562E-2    -.1440E-2
    3.788       0.2621E-2    -.1107E-2    0.2046E-2    -.1198E-1    0.2621E-2    -.1107E-2
    3.808       0.2648E-2    -.7750E-3    0.2103E-2    -.1158E-1    0.2649E-2    -.7746E-3
    3.828       0.2648E-2    -.4259E-3    0.2167E-2    -.1117E-1    0.2648E-2    -.4257E-3
    3.848       0.2633E-2    -.5104E-4    0.2241E-2    -.1075E-1    0.2634E-2    -.5142E-4
    3.868       0.2615E-2    0.3478E-3    0.2328E-2    -.1033E-1    0.2616E-2    0.3467E-3
    3.888       0.2599E-2    0.7661E-3    0.2431E-2    -.9895E-2    0.2599E-2    0.7647E-3
    3.908       0.2587E-2    0.1202E-2    0.2553E-2    -.9458E-2    0.2586E-2    0.1200E-2
    3.928       0.2580E-2    0.1653E-2    0.2701E-2    -.9022E-2    0.2578E-2    0.1653E-2
    3.948       0.2581E-2    0.2121E-2    0.2878E-2    -.8594E-2    0.2579E-2    0.2121E-2
    3.968       0.2592E-2    0.2601E-2    0.3085E-2    -.8189E-2    0.2591E-2    0.2602E-2
    3.988       0.2613E-2    0.3092E-2    0.3316E-2    -.7826E-2    0.2613E-2    0.3093E-2
    4.008       0.2646E-2    0.3592E-2    0.3547E-2    -.7520E-2    0.2645E-2    0.3594E-2
    4.028       0.2689E-2    0.4101E-2    0.3742E-2    -.7273E-2    0.2690E-2    0.4103E-2
    4.048       0.2744E-2    0.4619E-2    0.3864E-2    -.7053E-2    0.2746E-2    0.4621E-2
    4.068       0.2813E-2    0.5144E-2    0.3911E-2    -.6808E-2    0.2815E-2    0.5146E-2
    4.088       0.2897E-2    0.5678E-2    0.3919E-2    -.6500E-2    0.2900E-2    0.5679E-2
    4.108       0.3000E-2    0.6217E-2    0.3934E-2    -.6125E-2    0.3004E-2    0.6218E-2
    4.128       0.3126E-2    0.6761E-2    0.3989E-2    -.5711E-2    0.3131E-2    0.6760E-2
    4.148       0.3279E-2    0.7302E-2    0.4091E-2    -.5294E-2    0.3285E-2    0.7300E-2
    4.168       0.3464E-2    0.7833E-2    0.4224E-2    -.4905E-2    0.3470E-2    0.7827E-2
    4.188       0.3680E-2    0.8338E-2    0.4353E-2    -.4556E-2    0.3685E-2    0.8326E-2
    4.208       0.3918E-2    0.8798E-2    0.4441E-2    -.4231E-2    0.3917E-2    0.8781E-2
    4.228       0.4153E-2    0.9201E-2    0.4480E-2    -.3889E-2    0.4141E-2    0.9182E-2
    4.248       0.4350E-2    0.9552E-2    0.4492E-2    -.3503E-2    0.4323E-2    0.9540E-2
    4.269       0.4482E-2    0.9887E-2    0.4502E-2    -.3071E-2    0.4447E-2    0.9894E-2
    4.289       0.4563E-2    0.1025E-1    0.4521E-2    -.2604E-2    0.4534E-2    0.1028E-1
    4.309       0.4632E-2    0.1066E-1    0.4545E-2    -.2102E-2    0.4623E-2    0.1071E-1
    4.329       0.4730E-2    0.1110E-1    0.4580E-2    -.1555E-2    0.4748E-2    0.1115E-1
    4.349       0.4866E-2    0.1152E-1    0.4644E-2    -.9561E-3    0.4908E-2    0.1155E-1
    4.369       0.5014E-2    0.1189E-1    0.4760E-2    -.3101E-3    0.5066E-2    0.1189E-1
    4.389       0.5115E-2    0.1219E-1    0.4946E-2    0.3651E-3    0.5158E-2    0.1216E-1
    4.409       0.5115E-2    0.1245E-1    0.5210E-2    0.1045E-2    0.5134E-2    0.1241E-1
    4.429       0.5002E-2    0.1277E-1    0.5552E-2    0.1700E-2    0.4998E-2    0.1273E-1
    4.449       0.4819E-2    0.1318E-1    0.5950E-2    0.2300E-2    0.4801E-2    0.1315E-1
    4.469       0.4625E-2    0.1370E-1    0.6361E-2    0.2831E-2    0.4601E-2    0.1368E-1
    4.489       0.4458E-2    0.1431E-1    0.6732E-2    0.3318E-2    0.4436E-2    0.1430E-1
    4.509       0.4335E-2    0.1498E-1    0.7039E-2    0.3831E-2    0.4317E-2    0.1498E-1
    4.529       0.4258E-2    0.1569E-1    0.7322E-2    0.4445E-2    0.4244E-2    0.1570E-1
    4.549       0.4223E-2    0.1644E-1    0.7664E-2    0.5193E-2    0.4212E-2    0.1644E-1
    4.569       0.4225E-2    0.1720E-1    0.8148E-2    0.6059E-2    0.4217E-2    0.1721E-1
    4.589       0.4260E-2    0.1798E-1    0.8845E-2    0.7001E-2    0.4254E-2    0.1799E-1
    4.609       0.4324E-2    0.1878E-1    0.9815E-2    0.7959E-2    0.4321E-2    0.1879E-1
    4.629       0.4418E-2    0.1960E-1    0.1112E-1    0.8850E-2    0.4415E-2    0.1961E-1
    4.649       0.4539E-2    0.2044E-1    0.1281E-1    0.9548E-2    0.4539E-2    0.2045E-1
      4.6693       0.0047       0.0213       0.0149       0.0099       0.0047       0.0213
      4.6894       0.0049       0.0222       0.0174       0.0095       0.0049       0.0222
      4.7094       0.0051       0.0231       0.0199       0.0081       0.0051       0.0231
      4.7295       0.0054       0.0241       0.0218       0.0057       0.0054       0.0241
    4.749       0.5697E-2    0.2503E-1    0.2264E-1    0.2438E-2    0.5705E-2    0.2504E-1
    4.770       0.6085E-2    0.2604E-1    0.2192E-1    -.8233E-3    0.6096E-2    0.2604E-1
    4.790       0.6549E-2    0.2706E-1    0.2000E-1    -.3299E-2    0.6564E-2    0.2707E-1
    4.810       0.7098E-2    0.2810E-1    0.1754E-1    -.4656E-2    0.7117E-2    0.2810E-1
      4.8297       0.0077       0.0291       0.0151      -0.0050       0.0078       0.0291
    4.850       0.8456E-2    0.3019E-1    0.1301E-1    -.4696E-2    0.8483E-2    0.3018E-1
    4.870       0.9265E-2    0.3125E-1    0.1133E-1    -.3965E-2    0.9292E-2    0.3123E-1
    4.890       0.1019E-1    0.3236E-1    0.1002E-1    -.3027E-2    0.1021E-1    0.3233E-1
    4.910       0.1131E-1    0.3353E-1    0.9042E-2    -.2011E-2    0.1132E-1    0.3349E-1
    4.930       0.1272E-1    0.3473E-1    0.8320E-2    -.9970E-3    0.1272E-1    0.3469E-1
    4.950       0.1453E-1    0.3588E-1    0.7789E-2    -.3632E-4    0.1451E-1    0.3584E-1
    4.970       0.1685E-1    0.3682E-1    0.7378E-2    0.8447E-3    0.1681E-1    0.3677E-1
    4.990       0.1973E-1    0.3728E-1    0.7015E-2    0.1653E-2    0.1967E-1    0.3725E-1
    5.010       0.2311E-1    0.3689E-1    0.6654E-2    0.2430E-2    0.2303E-1    0.3689E-1
    5.030       0.2666E-1    0.3522E-1    0.6292E-2    0.3222E-2    0.2658E-1    0.3525E-1
    5.050       0.2965E-1    0.3199E-1    0.5949E-2    0.4054E-2    0.2959E-1    0.3206E-1
    5.070       0.3115E-1    0.2751E-1    0.5650E-2    0.4927E-2    0.3112E-1    0.2760E-1
      5.0902       0.0305       0.0228       0.0054       0.0058       0.0306       0.0229
      5.1102       0.0281       0.0190       0.0052       0.0067       0.0281       0.0190
    5.130       0.2468E-1    0.1670E-1    0.5073E-2    0.7655E-2    0.2475E-1    0.1673E-1
    5.150       0.2119E-1    0.1588E-1    0.4973E-2    0.8574E-2    0.2125E-1    0.1589E-1
    5.170       0.1809E-1    0.1612E-1    0.4909E-2    0.9492E-2    0.1815E-1    0.1611E-1
    5.190       0.1554E-1    0.1700E-1    0.4877E-2    0.1041E-1    0.1558E-1    0.1698E-1
    5.210       0.1350E-1    0.1823E-1    0.4873E-2    0.1133E-1    0.1353E-1    0.1821E-1
    5.230       0.1191E-1    0.1963E-1    0.4895E-2    0.1226E-1    0.1193E-1    0.1960E-1
    5.251       0.1067E-1    0.2109E-1    0.4941E-2    0.1318E-1    0.1068E-1    0.2106E-1
    5.271       0.9700E-2    0.2256E-1    0.5008E-2    0.1411E-1    0.9710E-2    0.2253E-1
    5.291       0.8944E-2    0.2401E-1    0.5094E-2    0.1505E-1    0.8948E-2    0.2398E-1
    5.311       0.8352E-2    0.2543E-1    0.5196E-2    0.1600E-1    0.8352E-2    0.2540E-1
    5.331       0.7890E-2    0.2682E-1    0.5313E-2    0.1696E-1    0.7885E-2    0.2679E-1
      5.3507       0.0075       0.0282       0.0054       0.0179       0.0075       0.0282
      5.3707       0.0073       0.0295       0.0056       0.0189       0.0072       0.0295
      5.3908       0.0071       0.0308       0.0058       0.0200       0.0070       0.0308
      5.4108       0.0069       0.0321       0.0059       0.0210       0.0069       0.0321
      5.4309       0.0068       0.0334       0.0062       0.0221       0.0068       0.0334
      5.4509       0.0068       0.0346       0.0064       0.0233       0.0067       0.0346
      5.4709       0.0068       0.0359       0.0067       0.0245       0.0067       0.0359
      5.4910       0.0068       0.0371       0.0070       0.0258       0.0067       0.0371
      5.5110       0.0068       0.0383       0.0074       0.0271       0.0068       0.0384
      5.5311       0.0069       0.0395       0.0078       0.0285       0.0068       0.0396
      5.5511       0.0069       0.0407       0.0083       0.0300       0.0069       0.0408
      5.5711       0.0070       0.0420       0.0089       0.0315       0.0070       0.0421
      5.5912       0.0070       0.0433       0.0096       0.0332       0.0071       0.0433
      5.6112       0.0072       0.0446       0.0105       0.0349       0.0072       0.0446
      5.6313       0.0073       0.0460       0.0115       0.0368       0.0073       0.0460
      5.6513       0.0075       0.0474       0.0126       0.0388       0.0075       0.0474
      5.6713       0.0077       0.0488       0.0141       0.0409       0.0077       0.0488
      5.6914       0.0079       0.0503       0.0158       0.0431       0.0079       0.0503
      5.7114       0.0082       0.0519       0.0179       0.0455       0.0082       0.0519
      5.7315       0.0085       0.0535       0.0206       0.0480       0.0085       0.0534
      5.7515       0.0089       0.0551       0.0239       0.0506       0.0089       0.0551
      5.7715       0.0093       0.0568       0.0280       0.0531       0.0093       0.0568
      5.7916       0.0098       0.0586       0.0333       0.0554       0.0098       0.0586
     5.81162      0.01039      0.06053      0.03988      0.05698      0.01039      0.06050
     5.83166      0.01103      0.06251      0.04793      0.05725      0.01103      0.06248
     5.85170      0.01178      0.06459      0.05726      0.05523      0.01178      0.06457
     5.87174      0.01265      0.06680      0.06697      0.04980      0.01265      0.06678
     5.89178      0.01366      0.06914      0.07514      0.04034      0.01365      0.06912
     5.91182      0.01485      0.07163      0.07936      0.02778      0.01484      0.07161
     5.93186      0.01625      0.07429      0.07826      0.01482      0.01623      0.07427
    5.952       0.1792E-1    0.7713E-1    0.7279E-1    0.4397E-2    0.1790E-1    0.7710E-1
    5.972       0.1992E-1    0.8017E-1    0.6537E-1    -.2160E-2    0.1989E-1    0.8014E-1
    5.992       0.2234E-1    0.8341E-1    0.5821E-1    -.5312E-2    0.2230E-1    0.8339E-1
      6.0120       0.0253       0.0869       0.0524      -0.0064       0.0253       0.0868
      6.0321       0.0290       0.0905       0.0482      -0.0066       0.0289       0.0905
      6.0521       0.0335       0.0943       0.0451      -0.0069       0.0334       0.0942
      6.0721       0.0392       0.0980       0.0423      -0.0076       0.0391       0.0980
      6.0922       0.0464       0.1014       0.0392      -0.0085       0.0462       0.1015
      6.1122       0.0553       0.1041       0.0357      -0.0088       0.0551       0.1042
      6.1323       0.0662       0.1052       0.0324      -0.0085       0.0660       0.1054
      6.1523       0.0788       0.1034       0.0295      -0.0077       0.0787       0.1038
      6.1723       0.0921       0.0975       0.0273      -0.0066       0.0922       0.0981
    6.192       0.1037       0.8685E-1    0.2547E-1    -.5787E-2    0.1042       0.8737E-1
    6.212       0.1110       0.7264E-1    0.2380E-1    -.5233E-2    0.1119       0.7282E-1
    6.232       0.1129       0.5796E-1    0.2195E-1    -.4838E-2    0.1139       0.5750E-1
    6.253       0.1108       0.4568E-1    0.1986E-1    -.4307E-2    0.1115       0.4457E-1
    6.273       0.1076       0.3640E-1    0.1768E-1    -.3436E-2    0.1075       0.3502E-1
    6.293       0.1051       0.2859E-1    0.1564E-1    -.2214E-2    0.1042       0.2752E-1
    6.313       0.1031       0.2023E-1    0.1385E-1    -.7485E-3    0.1017       0.1995E-1
    6.333       0.9978E-1    0.1048E-1    0.1235E-1    0.8408E-3    0.9856E-1    0.1107E-1
    6.353       0.9340E-1    0.4846E-3    0.1111E-1    0.2465E-2    0.9283E-1    0.1565E-2
    6.373       0.8387E-1    -.7532E-2    0.1009E-1    0.4071E-2    0.8400E-1    -.6504E-2
    6.393       0.7278E-1    -.1214E-1    0.9245E-2    0.5631E-2    0.7332E-1    -.1149E-1
      6.4128       0.0620      -0.0134       0.0085       0.0071       0.0626      -0.0132
      6.4329       0.0525      -0.0123       0.0080       0.0086       0.0530      -0.0123
      6.4529       0.0447      -0.0097       0.0075       0.0099       0.0451      -0.0099
    6.473       0.3851E-1    -.6413E-2    0.7061E-2    0.1127E-1    0.3870E-1    -.6732E-2
    6.493       0.3367E-1    -.2986E-2    0.6710E-2    0.1253E-1    0.3369E-1    -.3293E-2
    6.513       0.2986E-1    0.3162E-3    0.6413E-2    0.1375E-1    0.2975E-1    0.8700E-4
    6.533       0.2676E-1    0.3355E-2    0.6160E-2    0.1491E-1    0.2659E-1    0.3237E-2
    6.553       0.2410E-1    0.6131E-2    0.5946E-2    0.1603E-1    0.2395E-1    0.6116E-2
    6.573       0.2172E-1    0.8742E-2    0.5763E-2    0.1710E-1    0.2162E-1    0.8786E-2
    6.593       0.1957E-1    0.1129E-1    0.5598E-2    0.1812E-1    0.1953E-1    0.1135E-1
    6.613       0.1767E-1    0.1381E-1    0.5442E-2    0.1910E-1    0.1766E-1    0.1386E-1
    6.633       0.1603E-1    0.1630E-1    0.5286E-2    0.2005E-1    0.1603E-1    0.1633E-1
    6.653       0.1463E-1    0.1872E-1    0.5129E-2    0.2099E-1    0.1464E-1    0.1873E-1
    6.673       0.1345E-1    0.2105E-1    0.4977E-2    0.2191E-1    0.1345E-1    0.2106E-1
    6.693       0.1244E-1    0.2328E-1    0.4836E-2    0.2283E-1    0.1245E-1    0.2328E-1
    6.713       0.1159E-1    0.2540E-1    0.4709E-2    0.2373E-1    0.1159E-1    0.2541E-1
    6.733       0.1085E-1    0.2743E-1    0.4596E-2    0.2463E-1    0.1086E-1    0.2743E-1
    6.754       0.1022E-1    0.2937E-1    0.4496E-2    0.2551E-1    0.1022E-1    0.2937E-1
    6.774       0.9672E-2    0.3122E-1    0.4406E-2    0.2638E-1    0.9674E-2    0.3122E-1
    6.794       0.9192E-2    0.3299E-1    0.4327E-2    0.2724E-1    0.9193E-2    0.3299E-1
    6.814       0.8769E-2    0.3470E-1    0.4256E-2    0.2808E-1    0.8771E-2    0.3470E-1
    6.834       0.8396E-2    0.3634E-1    0.4192E-2    0.2892E-1    0.8397E-2    0.3634E-1
    6.854       0.8065E-2    0.3792E-1    0.4134E-2    0.2974E-1    0.8066E-2    0.3792E-1
    6.874       0.7769E-2    0.3944E-1    0.4081E-2    0.3056E-1    0.7770E-2    0.3944E-1
    6.894       0.7505E-2    0.4092E-1    0.4034E-2    0.3136E-1    0.7505E-2    0.4092E-1
    6.914       0.7268E-2    0.4236E-1    0.3990E-2    0.3216E-1    0.7268E-2    0.4236E-1
    6.934       0.7054E-2    0.4376E-1    0.3951E-2    0.3295E-1    0.7054E-2    0.4376E-1
    6.954       0.6861E-2    0.4512E-1    0.3915E-2    0.3373E-1    0.6861E-2    0.4512E-1
    6.974       0.6686E-2    0.4644E-1    0.3882E-2    0.3451E-1    0.6686E-2    0.4644E-1
    6.994       0.6527E-2    0.4774E-1    0.3852E-2    0.3528E-1    0.6527E-2    0.4774E-1
    7.014       0.6383E-2    0.4901E-1    0.3825E-2    0.3604E-1    0.6383E-2    0.4901E-1
    7.034       0.6251E-2    0.5026E-1    0.3800E-2    0.3680E-1    0.6251E-2    0.5026E-1
    7.054       0.6131E-2    0.5148E-1    0.3777E-2    0.3756E-1    0.6131E-2    0.5148E-1
    7.074       0.6022E-2    0.5268E-1    0.3756E-2    0.3831E-1    0.6022E-2    0.5268E-1
    7.094       0.5921E-2    0.5386E-1    0.3737E-2    0.3906E-1    0.5921E-2    0.5386E-1
    7.114       0.5829E-2    0.5502E-1    0.3720E-2    0.3980E-1    0.5829E-2    0.5502E-1
    7.134       0.5745E-2    0.5617E-1    0.3705E-2    0.4054E-1    0.5745E-2    0.5617E-1
    7.154       0.5667E-2    0.5730E-1    0.3690E-2    0.4128E-1    0.5667E-2    0.5730E-1
    7.174       0.5596E-2    0.5842E-1    0.3678E-2    0.4202E-1    0.5596E-2    0.5842E-1
    7.194       0.5531E-2    0.5953E-1    0.3666E-2    0.4275E-1    0.5531E-2    0.5953E-1
    7.214       0.5471E-2    0.6062E-1    0.3656E-2    0.4348E-1    0.5471E-2    0.6062E-1
    7.234       0.5416E-2    0.6170E-1    0.3647E-2    0.4421E-1    0.5416E-2    0.6170E-1
    7.255       0.5365E-2    0.6278E-1    0.3639E-2    0.4494E-1    0.5365E-2    0.6278E-1
    7.275       0.5318E-2    0.6384E-1    0.3632E-2    0.4567E-1    0.5318E-2    0.6384E-1
    7.295       0.5275E-2    0.6490E-1    0.3625E-2    0.4639E-1    0.5275E-2    0.6490E-1
    7.315       0.5236E-2    0.6594E-1    0.3620E-2    0.4712E-1    0.5236E-2    0.6594E-1
    7.335       0.5200E-2    0.6698E-1    0.3616E-2    0.4784E-1    0.5200E-2    0.6698E-1
    7.355       0.5167E-2    0.6802E-1    0.3612E-2    0.4856E-1    0.5167E-2    0.6802E-1
    7.375       0.5136E-2    0.6905E-1    0.3609E-2    0.4929E-1    0.5136E-2    0.6905E-1
    7.395       0.5109E-2    0.7007E-1    0.3607E-2    0.5001E-1    0.5109E-2    0.7007E-1
    7.415       0.5083E-2    0.7108E-1    0.3605E-2    0.5073E-1    0.5083E-2    0.7108E-1
    7.435       0.5060E-2    0.7210E-1    0.3604E-2    0.5145E-1    0.5060E-2    0.7210E-1
    7.455       0.5040E-2    0.7311E-1    0.3604E-2    0.5217E-1    0.5040E-2    0.7311E-1
    7.475       0.5021E-2    0.7411E-1    0.3604E-2    0.5289E-1    0.5021E-2    0.7411E-1
    7.495       0.5004E-2    0.7511E-1    0.3605E-2    0.5362E-1    0.5004E-2    0.7511E-1
    7.515       0.4988E-2    0.7611E-1    0.3606E-2    0.5434E-1    0.4988E-2    0.7611E-1
    7.535       0.4975E-2    0.7711E-1    0.3608E-2    0.5506E-1    0.4975E-2    0.7711E-1
    7.555       0.4963E-2    0.7810E-1    0.3610E-2    0.5578E-1    0.4963E-2    0.7810E-1
    7.575       0.4952E-2    0.7909E-1    0.3613E-2    0.5650E-1    0.4952E-2    0.7909E-1
    7.595       0.4943E-2    0.8008E-1    0.3616E-2    0.5723E-1    0.4943E-2    0.8008E-1
    7.615       0.4935E-2    0.8107E-1    0.3619E-2    0.5795E-1    0.4935E-2    0.8107E-1
    7.635       0.4929E-2    0.8205E-1    0.3623E-2    0.5868E-1    0.4929E-2    0.8205E-1
    7.655       0.4923E-2    0.8304E-1    0.3628E-2    0.5940E-1    0.4923E-2    0.8304E-1
    7.675       0.4919E-2    0.8402E-1    0.3632E-2    0.6013E-1    0.4919E-2    0.8402E-1
    7.695       0.4916E-2    0.8501E-1    0.3637E-2    0.6086E-1    0.4916E-2    0.8501E-1
    7.715       0.4914E-2    0.8599E-1    0.3643E-2    0.6159E-1    0.4914E-2    0.8599E-1
    7.735       0.4912E-2    0.8697E-1    0.3648E-2    0.6232E-1    0.4912E-2    0.8697E-1
    7.756       0.4912E-2    0.8796E-1    0.3654E-2    0.6305E-1    0.4912E-2    0.8796E-1
    7.776       0.4913E-2    0.8894E-1    0.3661E-2    0.6378E-1    0.4913E-2    0.8894E-1
    7.796       0.4914E-2    0.8992E-1    0.3667E-2    0.6451E-1    0.4914E-2    0.8992E-1
    7.816       0.4917E-2    0.9091E-1    0.3674E-2    0.6525E-1    0.4917E-2    0.9091E-1
    7.836       0.4920E-2    0.9189E-1    0.3681E-2    0.6599E-1    0.4920E-2    0.9189E-1
    7.856       0.4923E-2    0.9288E-1    0.3689E-2    0.6672E-1    0.4923E-2    0.9288E-1
    7.876       0.4928E-2    0.9386E-1    0.3697E-2    0.6746E-1    0.4928E-2    0.9386E-1
    7.896       0.4933E-2    0.9485E-1    0.3705E-2    0.6820E-1    0.4933E-2    0.9485E-1
    7.916       0.4939E-2    0.9584E-1    0.3713E-2    0.6895E-1    0.4939E-2    0.9584E-1
    7.936       0.4946E-2    0.9683E-1    0.3721E-2    0.6969E-1    0.4946E-2    0.9683E-1
    7.956       0.4953E-2    0.9782E-1    0.3730E-2    0.7044E-1    0.4953E-2    0.9782E-1
    7.976       0.4961E-2    0.9881E-1    0.3739E-2    0.7119E-1    0.4961E-2    0.9881E-1
    7.996       0.4969E-2    0.9980E-1    0.3748E-2    0.7194E-1    0.4969E-2    0.9980E-1
    8.016       0.4978E-2    0.1008       0.3757E-2    0.7269E-1    0.4978E-2    0.1008   
    8.036       0.4988E-2    0.1018       0.3767E-2    0.7344E-1    0.4988E-2    0.1018   
    8.056       0.4998E-2    0.1028       0.3777E-2    0.7420E-1    0.4998E-2    0.1028   
    8.076       0.5009E-2    0.1038       0.3787E-2    0.7495E-1    0.5009E-2    0.1038   
    8.096       0.5020E-2    0.1048       0.3797E-2    0.7571E-1    0.5020E-2    0.1048   
    8.116       0.5031E-2    0.1058       0.3808E-2    0.7648E-1    0.5031E-2    0.1058   
    8.136       0.5044E-2    0.1068       0.3818E-2    0.7724E-1    0.5044E-2    0.1068   
    8.156       0.5056E-2    0.1078       0.3829E-2    0.7801E-1    0.5056E-2    0.1078   
    8.176       0.5070E-2    0.1088       0.3840E-2    0.7877E-1    0.5070E-2    0.1088   
    8.196       0.5083E-2    0.1099       0.3851E-2    0.7954E-1    0.5083E-2    0.1099   
    8.216       0.5097E-2    0.1109       0.3863E-2    0.8032E-1    0.5097E-2    0.1109   
    8.236       0.5112E-2    0.1119       0.3874E-2    0.8109E-1    0.5112E-2    0.1119   
    8.257       0.5127E-2    0.1129       0.3886E-2    0.8187E-1    0.5127E-2    0.1129   
    8.277       0.5143E-2    0.1140       0.3898E-2    0.8265E-1    0.5143E-2    0.1140   
    8.297       0.5159E-2    0.1150       0.3911E-2    0.8343E-1    0.5159E-2    0.1150   
    8.317       0.5175E-2    0.1160       0.3923E-2    0.8422E-1    0.5175E-2    0.1160   
    8.337       0.5192E-2    0.1171       0.3935E-2    0.8500E-1    0.5192E-2    0.1171   
    8.357       0.5209E-2    0.1181       0.3948E-2    0.8579E-1    0.5209E-2    0.1181   
    8.377       0.5227E-2    0.1191       0.3961E-2    0.8658E-1    0.5227E-2    0.1191   
    8.397       0.5245E-2    0.1202       0.3974E-2    0.8738E-1    0.5245E-2    0.1202   
    8.417       0.5264E-2    0.1212       0.3988E-2    0.8818E-1    0.5264E-2    0.1212   
    8.437       0.5283E-2    0.1223       0.4001E-2    0.8898E-1    0.5283E-2    0.1223   
    8.457       0.5303E-2    0.1234       0.4015E-2    0.8978E-1    0.5303E-2    0.1234   
    8.477       0.5323E-2    0.1244       0.4029E-2    0.9059E-1    0.5323E-2    0.1244   
    8.497       0.5343E-2    0.1255       0.4043E-2    0.9139E-1    0.5343E-2    0.1255   
    8.517       0.5364E-2    0.1266       0.4057E-2    0.9221E-1    0.5364E-2    0.1266   
    8.537       0.5386E-2    0.1276       0.4072E-2    0.9302E-1    0.5386E-2    0.1276   
    8.557       0.5408E-2    0.1287       0.4087E-2    0.9384E-1    0.5408E-2    0.1287   
    8.577       0.5430E-2    0.1298       0.4101E-2    0.9466E-1    0.5430E-2    0.1298   
    8.597       0.5453E-2    0.1309       0.4117E-2    0.9548E-1    0.5453E-2    0.1309   
    8.617       0.5476E-2    0.1320       0.4132E-2    0.9631E-1    0.5476E-2    0.1320   
    8.637       0.5500E-2    0.1331       0.4148E-2    0.9714E-1    0.5500E-2    0.1331   
    8.657       0.5525E-2    0.1342       0.4163E-2    0.9797E-1    0.5525E-2    0.1342   
    8.677       0.5550E-2    0.1353       0.4179E-2    0.9880E-1    0.5550E-2    0.1353   
    8.697       0.5575E-2    0.1364       0.4196E-2    0.9964E-1    0.5575E-2    0.1364   
    8.717       0.5601E-2    0.1375       0.4212E-2    0.1005       0.5601E-2    0.1375   
    8.737       0.5628E-2    0.1387       0.4229E-2    0.1013       0.5628E-2    0.1387   
    8.758       0.5655E-2    0.1398       0.4246E-2    0.1022       0.5655E-2    0.1398   
    8.778       0.5683E-2    0.1409       0.4263E-2    0.1030       0.5683E-2    0.1409   
    8.798       0.5712E-2    0.1421       0.4281E-2    0.1039       0.5712E-2    0.1421   
    8.818       0.5741E-2    0.1432       0.4299E-2    0.1047       0.5741E-2    0.1432   
    8.838       0.5771E-2    0.1444       0.4317E-2    0.1056       0.5771E-2    0.1444   
    8.858       0.5801E-2    0.1455       0.4335E-2    0.1065       0.5801E-2    0.1455   
    8.878       0.5832E-2    0.1467       0.4354E-2    0.1073       0.5832E-2    0.1467   
    8.898       0.5864E-2    0.1479       0.4373E-2    0.1082       0.5864E-2    0.1479   
    8.918       0.5897E-2    0.1490       0.4392E-2    0.1091       0.5897E-2    0.1490   
    8.938       0.5930E-2    0.1502       0.4412E-2    0.1100       0.5930E-2    0.1502   
    8.958       0.5965E-2    0.1514       0.4432E-2    0.1109       0.5965E-2    0.1514   
    8.978       0.6000E-2    0.1526       0.4452E-2    0.1118       0.6000E-2    0.1526   
    8.998       0.6036E-2    0.1538       0.4473E-2    0.1126       0.6036E-2    0.1538   
    9.018       0.6073E-2    0.1550       0.4494E-2    0.1135       0.6073E-2    0.1550   
    9.038       0.6111E-2    0.1562       0.4516E-2    0.1144       0.6111E-2    0.1562   
    9.058       0.6150E-2    0.1575       0.4538E-2    0.1154       0.6150E-2    0.1575   
    9.078       0.6190E-2    0.1587       0.4561E-2    0.1163       0.6190E-2    0.1587   
    9.098       0.6232E-2    0.1599       0.4584E-2    0.1172       0.6232E-2    0.1599   
    9.118       0.6274E-2    0.1612       0.4608E-2    0.1181       0.6274E-2    0.1612   
    9.138       0.6318E-2    0.1625       0.4632E-2    0.1190       0.6318E-2    0.1625   
    9.158       0.6363E-2    0.1637       0.4657E-2    0.1200       0.6363E-2    0.1637   
    9.178       0.6410E-2    0.1650       0.4682E-2    0.1209       0.6410E-2    0.1650   
    9.198       0.6458E-2    0.1663       0.4708E-2    0.1218       0.6458E-2    0.1663   
    9.218       0.6508E-2    0.1676       0.4735E-2    0.1228       0.6508E-2    0.1676   
    9.238       0.6559E-2    0.1689       0.4763E-2    0.1237       0.6559E-2    0.1689   
    9.259       0.6612E-2    0.1702       0.4791E-2    0.1247       0.6612E-2    0.1702   
    9.279       0.6667E-2    0.1715       0.4820E-2    0.1256       0.6667E-2    0.1715   
    9.299       0.6724E-2    0.1729       0.4850E-2    0.1266       0.6724E-2    0.1729   
    9.319       0.6784E-2    0.1742       0.4881E-2    0.1276       0.6784E-2    0.1742   
    9.339       0.6845E-2    0.1756       0.4914E-2    0.1286       0.6845E-2    0.1756   
    9.359       0.6909E-2    0.1770       0.4947E-2    0.1295       0.6909E-2    0.1770   
    9.379       0.6976E-2    0.1783       0.4982E-2    0.1305       0.6976E-2    0.1783   
    9.399       0.7045E-2    0.1797       0.5018E-2    0.1315       0.7045E-2    0.1797   
    9.419       0.7118E-2    0.1812       0.5055E-2    0.1325       0.7118E-2    0.1812   
    9.439       0.7194E-2    0.1826       0.5094E-2    0.1336       0.7194E-2    0.1826   
    9.459       0.7274E-2    0.1840       0.5135E-2    0.1346       0.7274E-2    0.1840   
    9.479       0.7357E-2    0.1855       0.5178E-2    0.1356       0.7357E-2    0.1855   
    9.499       0.7445E-2    0.1870       0.5222E-2    0.1367       0.7445E-2    0.1870   
    9.519       0.7537E-2    0.1885       0.5269E-2    0.1377       0.7537E-2    0.1885   
    9.539       0.7634E-2    0.1900       0.5319E-2    0.1388       0.7634E-2    0.1900   
    9.559       0.7737E-2    0.1915       0.5371E-2    0.1398       0.7737E-2    0.1915   
    9.579       0.7845E-2    0.1930       0.5426E-2    0.1409       0.7845E-2    0.1930   
    9.599       0.7960E-2    0.1946       0.5485E-2    0.1420       0.7960E-2    0.1946   
    9.619       0.8082E-2    0.1962       0.5547E-2    0.1431       0.8082E-2    0.1962   
    9.639       0.8212E-2    0.1978       0.5613E-2    0.1442       0.8212E-2    0.1978   
    9.659       0.8350E-2    0.1995       0.5684E-2    0.1453       0.8350E-2    0.1995   
    9.679       0.8498E-2    0.2012       0.5760E-2    0.1465       0.8498E-2    0.2011   
    9.699       0.8656E-2    0.2028       0.5843E-2    0.1476       0.8656E-2    0.2028   
    9.719       0.8826E-2    0.2046       0.5931E-2    0.1488       0.8826E-2    0.2046   
    9.739       0.9009E-2    0.2063       0.6027E-2    0.1500       0.9009E-2    0.2063   
    9.760       0.9207E-2    0.2081       0.6132E-2    0.1512       0.9207E-2    0.2081   
    9.780       0.9421E-2    0.2100       0.6247E-2    0.1524       0.9421E-2    0.2100   
    9.800       0.9654E-2    0.2119       0.6373E-2    0.1536       0.9654E-2    0.2119   
    9.820       0.9908E-2    0.2138       0.6511E-2    0.1549       0.9908E-2    0.2138   
    9.840       0.1019E-1    0.2157       0.6665E-2    0.1562       0.1019E-1    0.2157   
    9.860       0.1049E-1    0.2178       0.6837E-2    0.1575       0.1049E-1    0.2178   
    9.880       0.1083E-1    0.2198       0.7029E-2    0.1589       0.1083E-1    0.2198   
    9.900       0.1120E-1    0.2220       0.7246E-2    0.1602       0.1120E-1    0.2220   
    9.920       0.1161E-1    0.2242       0.7492E-2    0.1617       0.1161E-1    0.2242   
    9.940       0.1207E-1    0.2265       0.7773E-2    0.1631       0.1207E-1    0.2265   
    9.960       0.1259E-1    0.2288       0.8097E-2    0.1646       0.1259E-1    0.2288   
    9.980       0.1317E-1    0.2313       0.8471E-2    0.1662       0.1317E-1    0.2313   
    10.00       0.1383E-1    0.2338       0.8909E-2    0.1678       0.1383E-1    0.2338   
# 
# 05/18/2017 at 16:42 YAMBO_RT @ anomaly [start]
# 05/18/2017 at 16:42                    [end]
#  
# Timing   [Min/Max/Average]: 04s/04s/04s
#
# .-Input file : INPUTS/09_bse_10fs_Ronly
# | optics                         # [R OPT] Optics
# | bse                            # [R BSE] Bethe Salpeter Equation.
# | bsk                            # [R BSK] Bethe Salpeter Equation kernel
# | bss                            # [R BSS] Bethe Salpeter Equation solver
# | em1s                           # [R Xs] Static Inverse Dielectric Matrix
# | BoseTemp= 0.000000     eV      # Bosonic Temperature
# | FFTGvecs=  387         RL      # [FFT] Plane-waves
# | Chimod= "hartree"              # [X] IP/Hartree/ALDA/LRC/BSfxc
# | BSEmod= "retarded"             # [BSE] resonant/retarded/coupling
# | BSKmod= "SEX"                  # [BSE] IP/Hartree/HF/ALDA/SEX/BSfxc
# | BSSmod= "h"                    # [BSS] (h)aydock/(d)iagonalization/(i)nversion/(t)ddft`
# | BSENGexx=  531         RL      # [BSK] Exchange components
# | BSENGBlk=  59          RL      # [BSK] Screened interaction block size
# | #WehCpl                        # [BSK] eh interaction included also in coupling
# | KfnQPdb= "E < 08_cohsex_eq/ndb.QP" # [EXTQP BSK BSS] Database
# | RfnRTdb= "f @ 0.1 ps < 04_elel+elph_0K/ndb.RT_carriers" # [EXTRT R] Database
# | % BEnRange
# |   0.00000 | 10.00000 | eV      # [BSS] Energy range
# | %
# | % BDmRange
# |   0.10000 |  0.10000 | eV      # [BSS] Damping range
# | %
# | BEnSteps=  500                 # [BSS] Energy steps
# | % BLongDir
# | 0.1000E-4 | 0.000    | 0.000    |        # [BSS] [cc] Electric Field
# | %
# | % BSEBands
# |   2 |  7 |                     # [BSK] Bands range
# | %
# | BSHayTrs=  0.02000             # [BSS] Relative [o/o] Haydock treshold. Strict(>0)/Average(<0)
# | % BndsRnXs
# |   1 |  8 |                     # [Xs] Polarization function bands
# | %
# | NGsBlkXs=  59          RL      # [Xs] Response block size
# | GrFnTpXs= "R"                  # [Xs] Green`s function (T)ordered,(R)etarded,(r)senant,(a)ntiresonant [T, R, r, Ta, Ra]
# | % DmRngeXs
# |   0.10000 |  0.10000 | eV      # [Xs] Damping range
# | %
# | % LongDrXs
# | 0.1000E-4 | 0.000    | 0.000    |        # [Xs] [cc] Electric Field
# | %
