#                                                           
#  __  __   ________   ___ __ __    _______   ______        
# /_/\/_/\ /_______/\ /__//_//_/\ /_______/\ /_____/\       
# \ \ \ \ \\::: _  \ \\::\| \| \ \\::: _  \ \\:::_ \ \      
#  \:\_\ \ \\::(_)  \ \\:.      \ \\::(_)  \/_\:\ \ \ \     
#   \::::_\/ \:: __  \ \\:.\-/\  \ \\::  _  \ \\:\ \ \ \    
#     \::\ \  \:.\ \  \ \\. \  \  \ \\::(_)  \ \\:\_\ \ \   
#      \__\/   \__\/\__\/ \__\/ \__\/ \_______\/ \_____\/   
#                                                           
#                                                           
#        Version 4.2.0 Revision 14600 Hash 48c5260          
#                  MPI+SLK+OpenMP Build                     
#                http://www.yambo-code.org                  
#
# Absorption @ Q(1) [q->0 direction] :0.1000E-4  0.000     0.000   
#
#
# - Energies      are  E < 08_ypp_gw_10fs_Xonly/ndb.QP_merged_1_gw_ppa + E Fit
# - Wavefunctions are Slater exchange(X)+Perdew & Zunger(C)
#
# - The Green`s function is Retarded -
# - Using the Length Gauge -
# - [r,Vnl] *is* included -
#
#   BSK|Identifier              :1021
#      |Dimension               :57
#      |Bands                   :2 - 7
#      |Exchange           [res]: yes
#      |Correlation        [res]: yes
#      |Kernel`s coupling       : no
#      |Exchange           [cpl]: no
#      |Correlation        [cpl]: no
#      |W interaction is bare   : no
#      |ALDA kernel in R-space  : no
#      |RL vectors    [exchange]:531
#      |RL vectors [correlation]:59
#      |E/h energy range    [ev]:-1.000000 - -1.000000
#      |Coupling range     [o/o]: 100.0000 -  100.0000
#    W |Interaction is diagonal : no
#      |Matrix size             :59
#      |Bands                   :1 - 8
#      |e/h energy range    [ev]:-1.000000 - -1.000000
#      |Poles              [o/o]: 100.0000
#      |RL vectors in the sum   :387
#      |[r,Vnl] included        : yes
#      |Field direction         :0.1000E-4  0.000000  0.000000
#      |Coulomb Cutoff          :none
#      |xc-Kernel               :none
#   RIM|RL components      [col]:0
#      |Random points      [col]:0
#  
#   Haydock|Accuracy (requested) [o/o]:  0.02000
#          |Accuracy (reached)   [o/o]:  0.01782
#          |Iteration                 :16
#
#    E/ev[1]      EPS-Im[2]    EPS-Re[3]    EPSo-Im[4]   EPSo-Re[5]   EPS`-Im[6]   EPS`-Re[7]
#
     0.00000      0.00000     61.17567      0.00000     53.25978      0.00000     61.17567
   0.2004E-1    0.8562E-1     61.18       0.5580E-1     53.27       0.8562E-1     61.18   
   0.4008E-1    0.1714        61.21       0.1117        53.28       0.1714        61.21   
   0.6012E-1    0.2575        61.25       0.1677        53.31       0.2575        61.25   
     0.08016      0.34406     61.31109      0.22399     53.34832      0.34406     61.31109
     0.10020      0.43128     61.38755      0.28059     53.39826      0.43128     61.38755
     0.12024      0.51930     61.48128      0.33760     53.45945      0.51930     61.48128
     0.14028      0.60831     61.59246      0.39511     53.53196      0.60831     61.59246
     0.16032      0.69848     61.72129      0.45320     53.61592      0.69848     61.72129
     0.18036      0.78998     61.86801      0.51195     53.71141      0.78998     61.86801
     0.20040      0.88300     62.03290      0.57147     53.81861      0.88300     62.03290
     0.22044      0.97775     62.21626      0.63185     53.93763      0.97775     62.21626
     0.24048      1.07442     62.41845      0.69318     54.06869      1.07442     62.41845
     0.26052      1.17323     62.63985      0.75557     54.21202      1.17323     62.63985
     0.28056      1.27441     62.88091      0.81912     54.36772      1.27441     62.88091
     0.30060      1.37818     63.14207      0.88395     54.53611      1.37818     63.14207
     0.32064      1.48481     63.42388      0.95017     54.71743      1.48481     63.42388
     0.34068      1.59457     63.72691      1.01790     54.91195      1.59457     63.72691
     0.36072      1.70772     64.05177      1.08728     55.11997      1.70772     64.05177
     0.38076      1.82459     64.39913      1.15845     55.34189      1.82459     64.39913
     0.40080      1.94550     64.76974      1.23154     55.57797      1.94550     64.76974
     0.42084      2.07080     65.16441      1.30671     55.82864      2.07080     65.16441
     0.44088      2.20087     65.58401      1.38413     56.09434      2.20087     65.58401
     0.46092      2.33612     66.02945      1.46397     56.37543      2.33612     66.02945
     0.48096      2.47699     66.50178      1.54641     56.67250      2.47699     66.50178
     0.50100      2.62397     67.00209      1.63167     56.98600      2.62397     67.00209
     0.52104      2.77756     67.53158      1.71994     57.31652      2.77756     67.53158
     0.54108      2.93836     68.09156      1.81147     57.66463      2.93836     68.09156
     0.56112      3.10698     68.68343      1.90650     58.03104      3.10698     68.68343
     0.58116      3.28409     69.30871      2.00530     58.41635      3.28409     69.30871
     0.60120      3.47047     69.96907      2.10816     58.82140      3.47047     69.96907
     0.62124      3.66692     70.66629      2.21540     59.24689      3.66692     70.66629
     0.64128      3.87437     71.40236      2.32736     59.69376      3.87437     71.40236
     0.66132      4.09382     72.17936      2.44441     60.16289      4.09382     72.17936
     0.68136      4.32640     72.99963      2.56695     60.65532      4.32640     72.99963
     0.70140      4.57333     73.86570      2.69544     61.17213      4.57333     73.86570
     0.72144      4.83602     74.78030      2.83035     61.71445      4.83602     74.78030
     0.74148      5.11600     75.74644      2.97221     62.28352      5.11600     75.74644
     0.76152      5.41502     76.76743      3.12162     62.88077      5.41502     76.76743
     0.78156      5.73503     77.84686      3.27922     63.50759      5.73503     77.84686
     0.80160      6.07821     78.98870      3.44572     64.16562      6.07821     78.98870
     0.82164      6.44707     80.19729      3.62190     64.85651      6.44707     80.19729
     0.84168      6.84440     81.47743      3.80864     65.58226      6.84440     81.47743
     0.86172      7.27342     82.83441      4.00691     66.34479      7.27342     82.83441
     0.88176      7.73779     84.27409      4.21779     67.14635      7.73779     84.27409
     0.90180      8.24169     85.80291      4.44249     67.98936      8.24169     85.80291
     0.92184      8.78993     87.42808      4.68236     68.87643      8.78993     87.42809
     0.94188      9.38809     89.15759      4.93892     69.81044      9.38809     89.15759
     0.96192     10.04261     91.00035      5.21388     70.79462     10.04261     91.00035
     0.98196     10.76100     92.96630      5.50918     71.83228     10.76100     92.96630
     1.00200     11.55202     95.06659      5.82701     72.92738     11.55202     95.06659
     1.02204     12.42599     97.31371      6.16986     74.08398     12.42599     97.31371
     1.04208     13.39510     99.72173      6.54058     75.30684     13.39510     99.72173
      1.0621      14.4738     102.3065       6.9424      76.6010      14.4738     102.3065
      1.0822      15.6794     105.0858       7.3791      77.9721      15.6794     105.0858
      1.1022      17.0326     108.0799       7.8550      79.4265      17.0326     108.0799
      1.1222      18.5584     111.3117       8.3751      80.9711      18.5584     111.3117
      1.1423      20.2875     114.8070       8.9452      82.6139      20.2875     114.8070
      1.1623      22.2573     118.5952       9.5720      84.3635      22.2573     118.5952
      1.1824      24.5138     122.7094      10.2637      86.2297      24.5138     122.7094
      1.2024      27.1147     127.1869      11.0296      88.2236      27.1147     127.1869
      1.2224      30.1321     132.0694      11.8809      90.3575      30.1321     132.0694
      1.2425      33.6573     137.4031      12.8310      92.6453      33.6573     137.4031
      1.2625      37.8070     143.2378      13.8959      95.1030      37.8070     143.2378
      1.2826      42.7314     149.6258      15.0950      97.7482      42.7314     149.6258
      1.3026      48.6260     156.6178      16.4519     100.6011      48.6260     156.6178
      1.3226      55.7469     164.2565      17.9955     103.6847      55.7468     164.2565
      1.3427      64.4322     172.5631      19.7614     107.0247      64.4322     172.5631
      1.3627      75.1307     181.5129      21.7941     110.6499      75.1307     181.5130
      1.3828      88.4373     190.9912      24.1492     114.5932      88.4372     190.9912
      1.4028     105.1336     200.7127      26.8972     118.8898     105.1336     200.7128
      1.4228     126.2209     210.0810      30.1280     123.5790     126.2208     210.0811
      1.4429     152.9032     217.9496      33.9577     128.7012     152.9031     217.9497
      1.4629     186.4255     222.2480      38.5367     134.2956     186.4255     222.2483
      1.4830     227.5481     219.5029      44.0628     140.3955     227.5482     219.5034
      1.5030     275.3284     204.5450      50.7966     147.0176     275.3289     204.5457
      1.5230     325.0675     171.3187      59.0839     154.1429     325.0687     171.3195
      1.5431     366.6251     116.2461      69.3833     161.6828     366.6272     116.2464
      1.5631     386.7002      43.7629      82.2971     169.4173     386.7031      43.7618
      1.5832     377.1562     -31.8804      98.5962     176.8858     377.1588     -31.8838
      1.6032     342.0392     -94.3481     119.2076     183.2027     342.0394     -94.3536
      1.6232     293.9338    -135.3707     145.0861     186.7696     293.9308    -135.3762
      1.6433     244.7377    -156.2398     176.8085     184.9072     244.7317    -156.2435
      1.6633     201.0467    -162.6651     213.6304     173.6340     201.0392    -162.6656
      1.6834     164.9037    -160.3344     251.9050     148.3035     164.8965    -160.3317
      1.7034     135.9815    -153.3335     283.8038     106.2112     135.9758    -153.3284
      1.7234     113.1237    -144.1864     299.1165      50.8461     113.1200    -144.1796
      1.7435      95.0808    -134.3248     291.6754      -6.7889      95.0794    -134.3171
      1.7635      80.7722    -124.5106     264.6830     -54.1787      80.7730    -124.5025
      1.7836      69.3396    -115.1210     227.8340     -85.0520      69.3426    -115.1129
      1.8036      60.1260    -106.3198     190.2342    -100.4549      60.1314    -106.3122
      1.8236      52.6352     -98.1567     156.9096    -104.7825      52.6431     -98.1504
      1.8437      46.4938     -90.6218     129.4052    -102.3913      46.5041     -90.6175
      1.8637      41.4204     -83.6767     107.4611     -96.4028      41.4325     -83.6755
     1.88377     37.20152    -77.27013     90.18974    -88.74227     37.21418    -77.27271
     1.90381     33.67429    -71.34775     76.63571    -80.49813     33.68616    -71.35414
     1.92385     30.71370    -65.85564     65.97520    -72.24706     30.72361    -65.86529
     1.94389     28.22340    -60.74330     57.55669    -64.27126     28.23072    -60.75525
     1.96393     26.12888    -55.96371     50.88387    -56.68957     26.13344    -55.97717
     1.98397     24.37266    -51.47408     45.58549    -49.53291     24.37453    -51.48852
     2.00401     22.91080    -47.23515     41.38632    -42.78613     22.91004    -47.25028
     2.02405     21.71040    -43.21132     38.08419    -36.41110     21.70700    -43.22701
     2.04409     20.74796    -39.36973     35.53241    -30.35959     20.74174    -39.38593
     2.06413     20.00828    -35.68018     33.62762    -24.57951     19.99886    -35.69685
     2.08417     19.48405    -32.11475     32.30157    -19.01905     19.47083    -32.13184
     2.10421     19.17596    -28.64770     31.51592    -13.62861     19.15802    -28.66501
     2.12425     19.09332    -25.25564     31.25997     -8.36253     19.06934    -25.27271
     2.14429     19.25538    -21.91826     31.55061     -3.18124     19.22356    -21.93415
     2.16433     19.69341    -18.61991     32.43475      1.94482     19.65130    -18.63276
     2.18437     20.45342    -15.35279     33.99371      7.02853     20.39793    -15.35921
     2.20441     21.59939    -12.12316     36.34938     12.05333     21.52698    -12.11687
     2.22445     23.21571     -8.96171     39.66975     16.95076     23.12353     -8.93170
     2.24449     25.40561     -5.94136     44.16784     21.56210     25.29469     -5.86908
     2.26453     28.27786     -3.20290     50.07803     25.57830     28.16084     -3.06025
     2.28457     31.90681     -0.98300     57.57782     28.46359     31.82345     -0.73609
     2.30461     36.25308      0.38515     66.60468     29.40808     36.29042      0.75164
     2.32465     41.06579      0.55695     76.55868     27.44932     41.35487      0.97844
     2.34469     45.89274     -0.62527     86.08932     21.95535     46.51880     -0.36134
     2.36473     50.33334     -3.00569     93.47803     13.33562     51.15731     -3.19773
     2.38477     54.31799     -6.37466     97.74236      3.08174     54.92957     -7.13347
     2.40481     57.87995    -10.90737     99.21934     -7.42435     57.87962    -11.94363
     2.42485     60.52462    -17.04532     98.56862    -17.90616     59.88437    -17.83720
     2.44489     61.08142    -24.67600     95.56419    -28.49957     60.18083    -24.88117
     2.46493     58.56921    -32.54604     89.48963    -38.43018     57.86003    -32.23722
     2.48497     53.23994    -38.88951     80.54120    -46.08368     52.90873    -38.38421
     2.50501     46.44258    -42.67314     70.15926    -50.35572     46.41065    -42.22462
     2.52505     39.58934    -43.98009     60.00290    -51.36191     39.70543    -43.67466
     2.54509     33.50687    -43.48459     51.09077    -49.96647     33.66442    -43.30803
     2.56513     28.45987    -41.89601     43.74395    -47.10516     28.60885    -41.80772
     2.58517     24.40577    -39.73518     37.88257    -43.47562     24.52985    -39.70005
     2.60521     21.19084    -37.32586     33.28033    -39.51312     21.28881    -37.32051
     2.62525     18.64780    -34.85068     29.69590    -35.46094     18.72348    -34.86113
     2.64529     16.63157    -32.40496     26.92184    -31.44222     16.68960    -32.42320
     2.66533     15.02671    -30.03350     24.79502    -27.51027     15.07121    -30.05517
     2.68537     13.74487    -27.75319     23.19300    -23.67951     13.77913    -27.77599
     2.70541     12.71963    -25.56597     22.02667    -19.94311     12.74610    -25.58867
     2.72545     11.90128    -23.46580     21.23354    -16.28303     11.92182    -23.48789
     2.74549     11.25297    -21.44308     20.77235    -12.67519     11.26891    -21.46430
     2.76553     10.74730    -19.48617     20.61937     -9.09245     10.75963    -19.50651
     2.78557     10.36433    -17.58311     20.76618     -5.50594     10.37374    -17.60260
     2.80561     10.08966    -15.72149     21.21881     -1.88588     10.09669    -15.74029
     2.82565      9.91358    -13.88930     21.99803      1.79784      9.91858    -13.90751
     2.84569      9.83008    -12.07438     23.14104      5.57509      9.83327    -12.09214
     2.86573      9.83652    -10.26481     24.70454      9.47417      9.83804    -10.28226
     2.88577      9.93332     -8.44844     26.76958     13.51943      9.93322     -8.46572
     2.90581     10.12398     -6.61295     29.44873     17.72690     10.12222     -6.63018
     2.92585     10.41527     -4.74563     32.89570     22.09537     10.41170     -4.76292
     2.94589     10.81761     -2.83326     37.31793     26.59100     10.81200     -2.85065
     2.96593     11.34578     -0.86194     42.99119     31.11888     11.33777     -0.87941
     2.98597     12.01987      1.18281     50.27114     35.47320     12.00894      1.16540
     3.00601     12.86675      3.31603     59.58850     39.25215     12.85224      3.29908
     3.02605     13.92200      5.55287     71.39269     41.72496     13.90312      5.53711
     3.04609     15.23252      7.90758     85.96834     41.65955     15.20856      7.89444
      3.0661      16.8603      10.3920     103.0065      37.2120      16.8309      10.3836
      3.0862      18.8870      13.0125     120.8745      26.1965      18.8531      13.0118
      3.1062      21.4218      15.7646     135.9923       7.2543      21.3860      15.7742
      3.1263      24.6100      18.6223     143.5699     -18.1750      24.5766      18.6437
      3.1463      28.6453      21.5184     140.5099     -45.0950      28.6191      21.5503
      3.1663      33.7772      24.3067     128.0286     -67.5614      33.7619      24.3461
      3.1864      40.3066      26.7028     110.5672     -82.3745      40.3042      26.7456
     3.20641     48.54300     28.19082     92.50160    -89.82699     48.55429     28.23297
     3.22645     58.67406     27.90547     76.34107    -91.93335     58.69894     27.94221
     3.24649     70.46110     24.56011     62.90793    -90.77557     70.49798     24.58597
     3.26653     82.72910     16.65052     52.11952    -87.87284     82.77287     16.66009
     3.28657     92.94956      3.29578     43.56540    -84.17123     92.99151      3.28642
     3.30661     97.81728    -14.38667     36.78996    -80.21001     97.84758    -14.41096
     3.32665     95.32436    -32.84374     31.39547    -76.27703     95.33828    -32.87335
     3.34669     86.49355    -48.02170     27.06458    -72.51541     86.49400    -48.04747
     3.36673     74.45750    -57.88013     23.55387    -68.98807     74.45068    -57.89835
     3.38677     62.16634    -62.75053     20.67917    -65.71465     62.15739    -62.76167
     3.40681     51.25090    -64.05398     18.30166    -62.69248     51.24246    -64.06009
     3.42685     42.21366    -63.20203     16.31643    -59.90804     42.20663    -63.20502
     3.44689     34.97063    -61.20737     14.64365    -57.34311     34.96507    -61.20858
     3.46693     29.23350    -58.69508     13.22212    -54.97818     29.22924    -58.69533
     3.48697     24.69149    -56.01949     12.00451    -52.79421     24.68823    -56.01923
     3.50701     21.07604    -53.36903     10.95386    -50.77327     21.07355    -53.36853
     3.52705     18.17385    -50.83692     10.04104    -48.89908     18.17195    -50.83633
     3.54709     15.82154    -48.46368      9.24294    -47.15701     15.82008    -48.46309
     3.56713     13.89566    -46.26159      8.54101    -45.53394     13.89452    -46.26101
     3.58717     12.30318    -44.22831      7.92030    -44.01827     12.30228    -44.22778
     3.60721     10.97376    -42.35445      7.36859    -42.59974     10.97305    -42.35395
     3.62725      9.85388    -40.62761      6.87589    -41.26926      9.85332    -40.62715
     3.64729      8.90254    -39.03465      6.43395    -40.01879      8.90208    -39.03424
     3.66733      8.08793    -37.56264      6.03588    -38.84115      8.08755    -37.56226
     3.68737      7.38526    -36.19959      5.67595    -37.72998      7.38496    -36.19925
     3.70741      6.77502    -34.93457      5.34934    -36.67968      6.77477    -34.93426
     3.72745      6.24167    -33.75774      5.05194    -35.68520      6.24146    -33.75747
     3.74749      5.77276    -32.66035      4.78029    -34.74203      5.77259    -32.66009
     3.76753      5.35825    -31.63462      4.53142    -33.84618      5.35811    -31.63439
     3.78758      4.98996    -30.67368      4.30276    -32.99400      4.98983    -30.67346
     3.80762      4.66115    -29.77144      4.09213    -32.18225      4.66105    -29.77124
     3.82766      4.36630    -28.92251      3.89761    -31.40797      4.36622    -28.92233
     3.84770      4.10080    -28.12213      3.71755    -30.66852      4.10073    -28.12196
     3.86774      3.86079    -27.36606      3.55050    -29.96148      3.86073    -27.36590
     3.88778      3.64303    -26.65054      3.39519    -29.28470      3.64298    -26.65039
     3.90782      3.44478    -25.97221      3.25050    -28.63614      3.44474    -25.97206
     3.92786      3.26371    -25.32807      3.11546    -28.01401      3.26368    -25.32792
     3.94790      3.09783    -24.71543      2.98918    -27.41665      3.09781    -24.71529
     3.96794      2.94544    -24.13189      2.87090    -26.84253      2.94542    -24.13176
     3.98798      2.80504    -23.57528      2.75993    -26.29026      2.80504    -23.57516
     4.00802      2.67538    -23.04366      2.65565    -25.75856      2.67539    -23.04353
     4.02806      2.55535    -22.53524      2.55752    -25.24623      2.55537    -22.53512
     4.04810      2.44396    -22.04843      2.46504    -24.75223      2.44399    -22.04831
     4.06814      2.34039    -21.58179      2.37777    -24.27550      2.34043    -21.58167
     4.08818      2.24387    -21.13398      2.29530    -23.81511      2.24393    -21.13387
     4.10822      2.15376    -20.70379      2.21727    -23.37023      2.15384    -20.70370
     4.12826      2.06947    -20.29013      2.14337    -22.94004      2.06956    -20.29006
     4.14830      1.99049    -19.89199      2.07328    -22.52378      1.99059    -19.89194
     4.16834      1.91635    -19.50845      2.00675    -22.12078      1.91645    -19.50843
     4.18838      1.84666    -19.13865      1.94352    -21.73038      1.84675    -19.13865
     4.20842      1.78105    -18.78182      1.88337    -21.35198      1.78112    -18.78182
     4.22846      1.71917    -18.43722      1.82609    -20.98500      1.71923    -18.43723
     4.24850      1.66075    -18.10420      1.77150    -20.62893      1.66080    -18.10421
     4.26854      1.60551    -17.78212      1.71943    -20.28325      1.60555    -17.78214
     4.28858      1.55322    -17.47044      1.66971    -19.94753      1.55325    -17.47046
     4.30862      1.50366    -17.16860      1.62219    -19.62130      1.50368    -17.16862
     4.32866      1.45662    -16.87612      1.57676    -19.30417      1.45664    -16.87614
     4.34870      1.41194    -16.59254      1.53327    -18.99575      1.41195    -16.59256
     4.36874      1.36944    -16.31743      1.49162    -18.69567      1.36945    -16.31745
     4.38878      1.32898    -16.05039      1.45170    -18.40359      1.32899    -16.05040
     4.40882      1.29043    -15.79105      1.41341    -18.11918      1.29044    -15.79106
     4.42886      1.25365    -15.53905      1.37666    -17.84214      1.25366    -15.53905
     4.44890      1.21853    -15.29406      1.34136    -17.57219      1.21854    -15.29407
     4.46894      1.18498    -15.05579      1.30745    -17.30904      1.18499    -15.05580
     4.48898      1.15289    -14.82393      1.27483    -17.05244      1.15289    -14.82394
     4.50902      1.12217    -14.59823      1.24345    -16.80215      1.12218    -14.59824
     4.52906      1.09275    -14.37842      1.21324    -16.55791      1.09275    -14.37842
     4.54910      1.06454    -14.16425      1.18414    -16.31952      1.06454    -14.16426
     4.56914      1.03747    -13.95551      1.15610    -16.08677      1.03748    -13.95552
     4.58918      1.01149    -13.75198      1.12906    -15.85945      1.01149    -13.75199
     4.60922      0.98653    -13.55346      1.10297    -15.63736      0.98653    -13.55346
     4.62926      0.96253    -13.35975      1.07779    -15.42034      0.96253    -13.35975
     4.64930      0.93945    -13.17067      1.05347    -15.20822      0.93945    -13.17068
     4.66934      0.91723    -12.98606      1.02998    -15.00081      0.91723    -12.98606
     4.68938      0.89583    -12.80573      1.00728    -14.79797      0.89583    -12.80574
     4.70942      0.87521    -12.62955      0.98532    -14.59955      0.87521    -12.62956
     4.72946      0.85532    -12.45737      0.96408    -14.40541      0.85532    -12.45737
     4.74950      0.83614    -12.28904      0.94353    -14.21539      0.83614    -12.28904
     4.76954      0.81762    -12.12443      0.92363    -14.02938      0.81762    -12.12443
     4.78958      0.79974    -11.96342      0.90435    -13.84725      0.79974    -11.96342
     4.80962      0.78246    -11.80588      0.88568    -13.66887      0.78246    -11.80588
     4.82966      0.76575    -11.65169      0.86758    -13.49415      0.76576    -11.65169
     4.84970      0.74960    -11.50076      0.85003    -13.32294      0.74960    -11.50076
     4.86974      0.73397    -11.35297      0.83301    -13.15518      0.73397    -11.35297
     4.88978      0.71884    -11.20822      0.81649    -12.99074      0.71884    -11.20822
     4.90982      0.70419    -11.06642      0.80046    -12.82951      0.70419    -11.06642
     4.92986      0.68999    -10.92748      0.78490    -12.67143      0.68999    -10.92748
     4.94990      0.67624    -10.79130      0.76978    -12.51639      0.67624    -10.79131
     4.96994      0.66290    -10.65781      0.75509    -12.36431      0.66290    -10.65781
     4.98998      0.64996    -10.52693      0.74082    -12.21511      0.64996    -10.52693
     5.01002      0.63740    -10.39857      0.72694    -12.06870      0.63740    -10.39857
     5.03006      0.62522    -10.27266      0.71345    -11.92500      0.62522    -10.27266
     5.05010      0.61339    -10.14914      0.70032    -11.78395      0.61339    -10.14914
     5.07014      0.60189    -10.02792      0.68756    -11.64547      0.60189    -10.02792
     5.09018      0.59073     -9.90896      0.67513    -11.50950      0.59073     -9.90896
     5.11022      0.57987     -9.79218      0.66303    -11.37595      0.57987     -9.79218
     5.13026      0.56932     -9.67753      0.65125    -11.24479      0.56932     -9.67753
     5.15030      0.55906     -9.56494      0.63978    -11.11593      0.55906     -9.56494
     5.17034      0.54907     -9.45437      0.62860    -10.98933      0.54907     -9.45437
     5.19038      0.53935     -9.34575      0.61771    -10.86492      0.53935     -9.34575
     5.21042      0.52990     -9.23904      0.60709    -10.74265      0.52990     -9.23904
     5.23046      0.52069     -9.13418      0.59674    -10.62247      0.52069     -9.13418
     5.25050      0.51171     -9.03113      0.58665    -10.50432      0.51171     -9.03113
     5.27054      0.50298     -8.92984      0.57681    -10.38815      0.50298     -8.92984
     5.29058      0.49446     -8.83027      0.56721    -10.27392      0.49446     -8.83027
     5.31062      0.48616     -8.73236      0.55784    -10.16157      0.48616     -8.73237
     5.33066      0.47806     -8.63609      0.54869    -10.05107      0.47806     -8.63609
    5.350701     0.470172    -8.541413     0.539763    -9.942369     0.470172    -8.541413
    5.370741     0.462473    -8.448282     0.531047    -9.835423     0.462473    -8.448282
    5.390781     0.454961    -8.356664     0.522535    -9.730188     0.454961    -8.356666
    5.410821     0.447630    -8.266527     0.514220    -9.626634     0.447630    -8.266529
    5.430861     0.440474    -8.177828     0.506097    -9.524716     0.440474    -8.177828
    5.450902     0.433488    -8.090535     0.498160    -9.424397     0.433488    -8.090535
    5.470942     0.426665    -8.004621     0.490403    -9.325644     0.426665    -8.004621
    5.490982     0.420001    -7.920047     0.482820    -9.228412     0.420001    -7.920049
    5.511022     0.413491    -7.836785     0.475407    -9.132683     0.413491    -7.836787
    5.531062     0.407130    -7.754805     0.468158    -9.038407     0.407130    -7.754805
    5.551102     0.400912    -7.674078     0.461068    -8.945566     0.400912    -7.674078
    5.571142     0.394835    -7.594576     0.454133    -8.854108     0.394835    -7.594576
    5.591182     0.388893    -7.516270     0.447348    -8.764037     0.388893    -7.516270
    5.611222     0.383082    -7.439136     0.440709    -8.675298     0.383082    -7.439136
    5.631262     0.377399    -7.363145     0.434212    -8.587864     0.377399    -7.363145
    5.651302     0.371839    -7.288277     0.427853    -8.501712     0.371839    -7.288277
    5.671342     0.366400    -7.214504     0.421627    -8.416816     0.366400    -7.214505
    5.691382     0.361077    -7.141802     0.415532    -8.333147     0.361077    -7.141804
    5.711423     0.355867    -7.070151     0.409562    -8.250685     0.355867    -7.070153
    5.731463     0.350767    -6.999529     0.403716    -8.169396     0.350767    -6.999529
    5.751503     0.345774    -6.929915     0.397990    -8.089267     0.345774    -6.929915
    5.771543     0.340884    -6.861281     0.392380    -8.010261     0.340884    -6.861283
    5.791583     0.336096    -6.793617     0.386882    -7.932367     0.336096    -6.793619
    5.811623     0.331405    -6.726897     0.381496    -7.855562     0.331405    -6.726897
    5.831663     0.326810    -6.661101     0.376216    -7.779813     0.326810    -6.661101
    5.851703     0.322307    -6.596212     0.371041    -7.705113     0.322307    -6.596212
    5.871743     0.317895    -6.532216     0.365967    -7.631431     0.317895    -6.532216
    5.891783     0.313571    -6.469089     0.360993    -7.558753     0.313570    -6.469089
    5.911823     0.309332    -6.406814     0.356115    -7.487060     0.309331    -6.406814
    5.931863     0.305176    -6.345378     0.351331    -7.416332     0.305176    -6.345378
    5.951903     0.301101    -6.284763     0.346638    -7.346547     0.301101    -6.284763
    5.971943     0.297105    -6.224954     0.342035    -7.277691     0.297105    -6.224956
    5.991984     0.293186    -6.165934     0.337519    -7.209742     0.293186    -6.165934
    6.012024     0.289342    -6.107689     0.333088    -7.142685     0.289342    -6.107689
    6.032064     0.285572    -6.050203     0.328739    -7.076508     0.285571    -6.050205
    6.052104     0.281872    -5.993464     0.324472    -7.011189     0.281872    -5.993465
    6.072144     0.278241    -5.937454     0.320283    -6.946717     0.278241    -5.937455
    6.092184     0.274679    -5.882165     0.316170    -6.883071     0.274679    -5.882165
    6.112224     0.271182    -5.827578     0.312133    -6.820240     0.271182    -5.827579
    6.132264     0.267750    -5.773686     0.308169    -6.758207     0.267750    -5.773687
    6.152305     0.264380    -5.720469     0.304276    -6.696959     0.264380    -5.720470
    6.172345     0.261072    -5.667921     0.300454    -6.636481     0.261072    -5.667922
    6.192385     0.257824    -5.616026     0.296699    -6.576759     0.257824    -5.616028
    6.212424     0.254635    -5.564775     0.293010    -6.517781     0.254634    -5.564777
    6.232464     0.251502    -5.514154     0.289387    -6.459533     0.251502    -5.514155
    6.252504     0.248425    -5.464155     0.285827    -6.402000     0.248425    -5.464156
    6.272545     0.245403    -5.414765     0.282329    -6.345174     0.245403    -5.414766
    6.292585     0.242434    -5.365972     0.278892    -6.289042     0.242434    -5.365973
    6.312625     0.239517    -5.317767     0.275514    -6.233587     0.239516    -5.317768
    6.332665     0.236651    -5.270139     0.272193    -6.178803     0.236650    -5.270141
    6.352705     0.233834    -5.223078     0.268930    -6.124678     0.233834    -5.223080
    6.372745     0.231067    -5.176576     0.265721    -6.071196     0.231066    -5.176577
    6.392785     0.228346    -5.130621     0.262567    -6.018353     0.228346    -5.130623
    6.412825     0.225673    -5.085206     0.259465    -5.966133     0.225673    -5.085208
    6.432866     0.223045    -5.040321     0.256415    -5.914523     0.223045    -5.040323
    6.452906     0.220462    -4.995955     0.253416    -5.863524     0.220462    -4.995958
    6.472946     0.217923    -4.952102     0.250466    -5.813119     0.217922    -4.952104
    6.492986     0.215427    -4.908751     0.247565    -5.763296     0.215426    -4.908754
    6.513026     0.212972    -4.865896     0.244711    -5.714047     0.212972    -4.865899
    6.533066     0.210559    -4.823526     0.241903    -5.665366     0.210558    -4.823528
    6.553106     0.208187    -4.781635     0.239141    -5.617240     0.208186    -4.781638
    6.573146     0.205854    -4.740216     0.236423    -5.569664     0.205853    -4.740218
    6.593186     0.203561    -4.699257     0.233749    -5.522622     0.203560    -4.699259
    6.613226     0.201306    -4.658754     0.231118    -5.476111     0.201304    -4.658757
    6.633266     0.199089    -4.618699     0.228528    -5.430127     0.199087    -4.618701
    6.653306     0.196909    -4.579081     0.225979    -5.384655     0.196907    -4.579084
    6.673346     0.194766    -4.539898     0.223470    -5.339684     0.194764    -4.539902
    6.693386     0.192660    -4.501139     0.221000    -5.295215     0.192658    -4.501142
    6.713427     0.190589    -4.462798     0.218568    -5.251235     0.190587    -4.462802
    6.733467     0.188555    -4.424867     0.216175    -5.207736     0.188552    -4.424872
    6.753507     0.186556    -4.387341     0.213818    -5.164710     0.186553    -4.387346
    6.773547     0.184593    -4.350212     0.211497    -5.122156     0.184590    -4.350219
    6.793587     0.182666    -4.313473     0.209212    -5.080057     0.182662    -4.313480
    6.813627     0.180775    -4.277119     0.206961    -5.038415     0.180771    -4.277125
    6.833667     0.178921    -4.241140     0.204744    -4.997219     0.178915    -4.241148
    6.853707     0.177104    -4.205532     0.202561    -4.956463     0.177097    -4.205540
    6.873747     0.175325    -4.170287     0.200411    -4.916140     0.175318    -4.170295
    6.893787     0.173587    -4.135395     0.198292    -4.876243     0.173578    -4.135406
    6.913827     0.171891    -4.100856     0.196205    -4.836766     0.171880    -4.100867
    6.933867     0.170240    -4.066658     0.194149    -4.797704     0.170227    -4.066671
    6.953907     0.168638    -4.032798     0.192123    -4.759048     0.168622    -4.032811
    6.973948     0.167091    -3.999265     0.190127    -4.720797     0.167072    -3.999280
    6.993988     0.165606    -3.966055     0.188160    -4.682943     0.165582    -3.966071
    7.014028     0.164192    -3.933162     0.186222    -4.645476     0.164162    -3.933180
    7.034068     0.162862    -3.900586     0.184311    -4.608394     0.162824    -3.900604
    7.054108     0.161635    -3.868322     0.182429    -4.571693     0.161586    -3.868339
    7.074148     0.160532    -3.836375     0.180573    -4.535367     0.160470    -3.836392
    7.094188     0.159584    -3.804762     0.178744    -4.499407     0.159504    -3.804773
    7.114228     0.158823    -3.773519     0.176941    -4.463809     0.158721    -3.773515
    7.134268     0.158283    -3.742704     0.175163    -4.428574     0.158156    -3.742674
    7.154308     0.157975    -3.712423     0.173411    -4.393687     0.157826    -3.712352
    7.174349     0.157850    -3.682828     0.171683    -4.359148     0.157695    -3.682689
    7.194388     0.157737    -3.654079     0.169980    -4.324955     0.157612    -3.653854
    7.214429     0.157315    -3.626218     0.168300    -4.291099     0.157276    -3.625920
    7.234468     0.156227    -3.599041     0.166644    -4.257578     0.156316    -3.598723
    7.254509     0.154332    -3.572095     0.165010    -4.224381     0.154541    -3.571836
    7.274549     0.151833    -3.544971     0.163400    -4.191513     0.152108    -3.544814
    7.294589     0.149098    -3.517512     0.161811    -4.158965     0.149377    -3.517459
    7.314629     0.146418    -3.489804     0.160244    -4.126730     0.146667    -3.489827
    7.334669     0.143936    -3.462009     0.158699    -4.094810     0.144143    -3.462080
    7.354709     0.141684    -3.434274     0.157175    -4.063191     0.141850    -3.434367
    7.374749     0.139643    -3.406691     0.155671    -4.031879     0.139774    -3.406796
    7.394789     0.137778    -3.379318     0.154188    -4.000866     0.137880    -3.379426
    7.414829     0.136055    -3.352186     0.152724    -3.970146     0.136135    -3.352293
    7.434869     0.134446    -3.325307     0.151281    -3.939717     0.134509    -3.325414
    7.454909     0.132928    -3.298688     0.149857    -3.909576     0.132977    -3.298792
    7.474950     0.131485    -3.272329     0.148451    -3.879716     0.131522    -3.272429
    7.494989     0.130102    -3.246228     0.147065    -3.850137     0.130130    -3.246324
    7.515030     0.128771    -3.220376     0.145697    -3.820835     0.128791    -3.220471
    7.535069     0.127484    -3.194774     0.144347    -3.791802     0.127497    -3.194868
    7.555110     0.126235    -3.169416     0.143015    -3.763037     0.126242    -3.169508
    7.575150     0.125020    -3.144300     0.141700    -3.734539     0.125021    -3.144391
    7.595191     0.123836    -3.119415     0.140403    -3.706299     0.123831    -3.119506
    7.615230     0.122680    -3.094763     0.139123    -3.678319     0.122668    -3.094854
    7.635271     0.121550    -3.070334     0.137859    -3.650593     0.121531    -3.070427
    7.655310     0.120444    -3.046129     0.136612    -3.623117     0.120417    -3.046224
    7.675351     0.119362    -3.022142     0.135381    -3.595891     0.119325    -3.022237
    7.695390     0.118302    -2.998371     0.134166    -3.568912     0.118254    -2.998466
    7.715430     0.117265    -2.974813     0.132967    -3.542170     0.117203    -2.974907
    7.735471     0.116249    -2.951463     0.131784    -3.515668     0.116170    -2.951554
    7.755510     0.115254    -2.928324     0.130616    -3.489399     0.115156    -2.928406
    7.775551     0.114275    -2.905391     0.129463    -3.463365     0.114159    -2.905457
    7.795590     0.113310    -2.882665     0.128325    -3.437560     0.113179    -2.882707
    7.815631     0.112351    -2.860138     0.127201    -3.411981     0.112216    -2.860149
    7.835670     0.111398    -2.837800     0.126092    -3.386625     0.111269    -2.837783
    7.855711     0.110453    -2.815642     0.124998    -3.361489     0.110338    -2.815605
    7.875751     0.109520    -2.793664     0.123917    -3.336570     0.109423    -2.793612
    7.895792     0.108603    -2.771860     0.122850    -3.311870     0.108524    -2.771800
    7.915831     0.107704    -2.750227     0.121798    -3.287379     0.107640    -2.750166
    7.935872     0.106823    -2.728769     0.120759    -3.263097     0.106771    -2.728709
    7.955911     0.105960    -2.707482     0.119733    -3.239023     0.105918    -2.707424
    7.975952     0.105114    -2.686363     0.118720    -3.215150     0.105080    -2.686307
    7.995991     0.104286    -2.665411     0.117721    -3.191481     0.104258    -2.665357
    8.016032     0.103474    -2.644623     0.116735    -3.168010     0.103451    -2.644571
    8.036072     0.102680    -2.623996     0.115762    -3.144737     0.102661    -2.623947
    8.056112     0.101902    -2.603525     0.114801    -3.121655     0.101886    -2.603478
    8.076152     0.101141    -2.583210     0.113853    -3.098766     0.101128    -2.583165
    8.096192     0.100398    -2.563044     0.112918    -3.076064     0.100387    -2.563002
     8.11623      0.09967     -2.54303      0.11200     -3.05355      0.09966     -2.54299
     8.13627      0.09897     -2.52316      0.11109     -3.03122      0.09896     -2.52312
     8.15631      0.09828     -2.50343      0.11019     -3.00907      0.09827     -2.50339
     8.17635      0.09761     -2.48384      0.10930     -2.98709      0.09761     -2.48380
     8.19639      0.09696     -2.46438      0.10843     -2.96530      0.09696     -2.46434
     8.21643      0.09634     -2.44505      0.10757     -2.94368      0.09634     -2.44501
     8.23647      0.09574     -2.42585      0.10672     -2.92222      0.09574     -2.42581
     8.25651      0.09517     -2.40677      0.10588     -2.90094      0.09517     -2.40673
     8.27655      0.09463     -2.38781      0.10506     -2.87983      0.09463     -2.38777
     8.29659      0.09412     -2.36895      0.10425     -2.85888      0.09412     -2.36892
     8.31663      0.09365     -2.35021      0.10345     -2.83808      0.09365     -2.35017
     8.33667      0.09322     -2.33157      0.10266     -2.81745      0.09323     -2.33153
     8.35671      0.09285     -2.31303      0.10189     -2.79698      0.09285     -2.31299
     8.37675      0.09253     -2.29458      0.10113     -2.77666      0.09253     -2.29454
     8.39679      0.09228     -2.27621      0.10038     -2.75649      0.09229     -2.27617
     8.41683      0.09212     -2.25792      0.09965     -2.73647      0.09213     -2.25788
     8.43687      0.09207     -2.23971      0.09893     -2.71659      0.09207     -2.23967
     8.45691      0.09215     -2.22158      0.09822     -2.69687      0.09215     -2.22153
     8.47695      0.09239     -2.20353      0.09753     -2.67728      0.09239     -2.20348
     8.49699      0.09285     -2.18558      0.09686     -2.65782      0.09285     -2.18552
     8.51703      0.09358     -2.16776      0.09620     -2.63851      0.09357     -2.16770
     8.53707      0.09463     -2.15016      0.09556     -2.61932      0.09463     -2.15008
     8.55711      0.09608     -2.13289      0.09494     -2.60027      0.09607     -2.13280
     8.57715      0.09790     -2.11618      0.09433     -2.58134      0.09791     -2.11605
     8.59719      0.09999     -2.10029      0.09375     -2.56253      0.10002     -2.10012
     8.61723      0.10196     -2.08547      0.09319     -2.54384      0.10205     -2.08527
     8.63727      0.10322     -2.07170      0.09265     -2.52526      0.10339     -2.07149
     8.65731      0.10320     -2.05847      0.09214     -2.50679      0.10347     -2.05830
     8.67735      0.10186     -2.04496      0.09166     -2.48843      0.10218     -2.04488
     8.69739      0.09967     -2.03056      0.09121     -2.47017      0.10000     -2.03058
     8.71743      0.09729     -2.01514      0.09080     -2.45200      0.09759     -2.01525
     8.73747      0.09514     -1.99891      0.09042     -2.43392      0.09539     -1.99908
     8.75751      0.09344     -1.98216      0.09010     -2.41592      0.09363     -1.98235
     8.77755      0.09220     -1.96508      0.08984     -2.39800      0.09235     -1.96530
     8.79760      0.09141     -1.94784      0.08963     -2.38015      0.09152     -1.94805
     8.81764      0.09103     -1.93048      0.08951     -2.36235      0.09111     -1.93070
     8.83768      0.09103     -1.91304      0.08947     -2.34460      0.09109     -1.91325
     8.85772      0.09141     -1.89552      0.08955     -2.32689      0.09144     -1.89574
     8.87776      0.09218     -1.87791      0.08976     -2.30921      0.09219     -1.87813
     8.89780      0.09337     -1.86019      0.09014     -2.29155      0.09336     -1.86041
     8.91784      0.09504     -1.84234      0.09072     -2.27389      0.09501     -1.84256
     8.93788      0.09728     -1.82432      0.09157     -2.25623      0.09723     -1.82454
     8.95792      0.10021     -1.80612      0.09275     -2.23857      0.10014     -1.80635
     8.97796      0.10401     -1.78772      0.09436     -2.22091      0.10392     -1.78795
     8.99800      0.10891     -1.76915      0.09652     -2.20330      0.10878     -1.76939
     9.01803      0.11522     -1.75048      0.09940     -2.18580      0.11505     -1.75072
    9.038075     0.123341    -1.731891     0.103200    -2.168567     0.123121    -1.732133
    9.058115     0.133802    -1.713737     0.108159    -2.151883     0.133518    -1.713968
    9.078156     0.147202    -1.696698     0.114479    -2.136244     0.146841    -1.696902
    9.098196     0.164106    -1.681980     0.122190    -2.122444     0.163654    -1.682124
    9.118237     0.184695    -1.671534     0.130837    -2.111562     0.184154    -1.671568
    9.138276     0.208026    -1.668097     0.139080    -2.104609     0.207428    -1.667957
    9.158317     0.230985    -1.674471     0.144629    -2.101665     0.230416    -1.674104
    9.178356     0.247860    -1.691391     0.145246    -2.100969     0.247453    -1.690810
    9.198397     0.252487    -1.715004     0.140445    -2.099430     0.252349    -1.714326
    9.218436     0.242712    -1.737446     0.131936    -2.094567     0.242840    -1.736832
    9.238477     0.222325    -1.751683     0.122180    -2.085775     0.222616    -1.751238
    9.258516     0.197778    -1.755403     0.112941    -2.073820     0.198117    -1.755135
    9.278557     0.174072    -1.750255     0.104987    -2.059824     0.174387    -1.750124
     9.29860      0.15357     -1.73917      0.09844     -2.04471      0.15383     -1.73913
     9.31864      0.13675     -1.72469      0.09314     -2.02909      0.13697     -1.72470
     9.33868      0.12329     -1.70852      0.08886     -2.01332      0.12345     -1.70855
     9.35872      0.11256     -1.69168      0.08538     -1.99759      0.11269     -1.69173
     9.37876      0.10399     -1.67474      0.08250     -1.98201      0.10409     -1.67479
     9.39880      0.09708     -1.65799      0.08011     -1.96662      0.09716     -1.65804
     9.41884      0.09146     -1.64158      0.07807     -1.95145      0.09152     -1.64162
     9.43888      0.08682     -1.62555      0.07633     -1.93650      0.08687     -1.62559
     9.45892      0.08296     -1.60993      0.07481     -1.92175      0.08300     -1.60996
     9.47896      0.07969     -1.59470      0.07347     -1.90720      0.07973     -1.59473
     9.49900      0.07691     -1.57984      0.07228     -1.89284      0.07694     -1.57987
     9.51904      0.07451     -1.56532      0.07120     -1.87867      0.07454     -1.56535
     9.53908      0.07243     -1.55112      0.07022     -1.86466      0.07244     -1.55115
     9.55912      0.07059     -1.53722      0.06932     -1.85081      0.07061     -1.53724
     9.57916      0.06896     -1.52358      0.06849     -1.83711      0.06898     -1.52360
     9.59920      0.06751     -1.51019      0.06771     -1.82356      0.06752     -1.51021
     9.61924      0.06620     -1.49704      0.06699     -1.81014      0.06621     -1.49705
     9.63928      0.06501     -1.48409      0.06630     -1.79685      0.06502     -1.48411
     9.65932      0.06392     -1.47134      0.06565     -1.78369      0.06393     -1.47136
     9.67936      0.06293     -1.45878      0.06503     -1.77065      0.06293     -1.45879
     9.69940      0.06201     -1.44639      0.06444     -1.75772      0.06201     -1.44640
     9.71944      0.06115     -1.43416      0.06387     -1.74490      0.06116     -1.43417
     9.73948      0.06035     -1.42207      0.06332     -1.73220      0.06036     -1.42209
     9.75952      0.05961     -1.41014      0.06280     -1.71959      0.05961     -1.41015
     9.77956      0.05891     -1.39833      0.06229     -1.70709      0.05891     -1.39834
     9.79960      0.05825     -1.38666      0.06180     -1.69468      0.05825     -1.38667
     9.81964      0.05762     -1.37511      0.06132     -1.68237      0.05762     -1.37512
     9.83968      0.05703     -1.36367      0.06085     -1.67015      0.05703     -1.36368
     9.85972      0.05646     -1.35235      0.06040     -1.65802      0.05647     -1.35236
     9.87976      0.05592     -1.34113      0.05996     -1.64598      0.05593     -1.34114
     9.89980      0.05541     -1.33001      0.05953     -1.63402      0.05541     -1.33002
     9.91984      0.05492     -1.31899      0.05911     -1.62215      0.05492     -1.31900
     9.93988      0.05444     -1.30807      0.05870     -1.61036      0.05444     -1.30807
     9.95992      0.05399     -1.29723      0.05830     -1.59865      0.05399     -1.29724
     9.97996      0.05355     -1.28649      0.05791     -1.58702      0.05355     -1.28649
    10.00000      0.05312     -1.27582      0.05752     -1.57547      0.05313     -1.27583
# 
# 06/16/2017 at 12:55 YAMBO_RT @ anomaly [start]
# 06/16/2017 at 12:55                    [end]
#  
# Timing   [Min/Max/Average]: 01s/01s/01s
#
# .-Input file : yambo.in
# | optics                         # [R OPT] Optics
# | bse                            # [R BSE] Bethe Salpeter Equation.
# | bsk                            # [R BSK] Bethe Salpeter Equation kernel
# | bss                            # [R BSS] Bethe Salpeter Equation solver
# | em1s                           # [R Xs] Static Inverse Dielectric Matrix
# | BoseTemp= 0.000000     eV      # Bosonic Temperature
# | FFTGvecs=  387         RL      # [FFT] Plane-waves
# | X_Threads= 1                   # [OPENMP/X] Number of threads for response functions
# | DIP_Threads= 1                 # [OPENMP/X] Number of threads for dipoles
# | K_Threads= 1                   # [OPENMP/BSK] Number of threads for response functions
# | Chimod= "hartree"              # [X] IP/Hartree/ALDA/LRC/BSfxc
# | BSEmod= "retarded"             # [BSE] resonant/retarded/coupling
# | BSKmod= "SEX"                  # [BSE] IP/Hartree/HF/ALDA/SEX/BSfxc
# | BSSmod= "h"                    # [BSS] (h)aydock/(d)iagonalization/(i)nversion/(t)ddft`
# | BSENGexx=  531         RL      # [BSK] Exchange components
# | BSENGBlk=  59          RL      # [BSK] Screened interaction block size
# | #WehCpl                        # [BSK] eh interaction included also in coupling
# | KfnQPdb= "E < 08_ypp_gw_10fs_Xonly/ndb.QP_merged_1_gw_ppa" # [EXTQP BSK BSS] Database
# | % BEnRange
# |   0.00000 | 10.00000 | eV      # [BSS] Energy range
# | %
# | % BDmRange
# |   0.10000 |  0.10000 | eV      # [BSS] Damping range
# | %
# | BEnSteps=  500                 # [BSS] Energy steps
# | % BLongDir
# | 0.1000E-4 | 0.000    | 0.000    |        # [BSS] [cc] Electric Field
# | %
# | % BSEBands
# |   2 |  7 |                     # [BSK] Bands range
# | %
# | BSHayTrs=  0.02000             # [BSS] Relative [o/o] Haydock treshold. Strict(>0)/Average(<0)
# | XfnRTdb= "f @ 0.1 ps < 04_elel+elph_0K/ndb.RT_carriers" # [EXTRT Xd] Database
# | % BndsRnXs
# |   1 |  8 |                     # [Xs] Polarization function bands
# | %
# | NGsBlkXs=  59          RL      # [Xs] Response block size
# | GrFnTpXs= "R"                  # [Xs] Green`s function (T)ordered,(R)etarded,(r)senant,(a)ntiresonant [T, R, r, Ta, Ra]
# | % DmRngeXs
# |   0.10000 |  0.10000 | eV      # [Xs] Damping range
# | %
# | % LongDrXs
# | 0.1000E-4 | 0.000    | 0.000    |        # [Xs] [cc] Electric Field
# | %
