#                                                           
#                                                           
# Y88b    /   e           e    e      888~~\    ,88~-_      
#  Y88b  /   d8b         d8b  d8b     888   |  d888   \     
#   Y88b/   /Y88b       d888bdY88b    888 _/  88888    |    
#    Y8Y   /  Y88b     / Y88Y Y888b   888  \  88888    |    
#     Y   /____Y88b   /   YY   Y888b  888   |  Y888   /     
#    /   /      Y88b /          Y888b 888__/    `88_-~      
#                                                           
#                                                           
#       Version 4.2.0 Revision 14544 Hash 1911cc9           
#                     MPI+SLK Build                         
#               http://www.yambo-code.org                   
#
# EELS @ Q(1)  [q->0 direction]:0.1000E-4  0.000     0.000   
#
#
# - Energies      are  E < 08_ypp_gw_10fs_Xonly/ndb.QP_merged_1_gw_ppa + Fitted E
# - Wavefunctions are Slater exchange(X)+Perdew & Zunger(C)
#
# - The Green`s function is Retarded -
# - Using the Length Gauge -
# - [r,Vnl] *is* included -
#
#   BSK|Identifier              :4161
#      |Dimension               :57
#      |Bands                   :2 - 7
#      |Exchange           [res]: yes
#      |Correlation        [res]: yes
#      |Kernel`s coupling       : no
#      |Exchange           [cpl]: no
#      |Correlation        [cpl]: no
#      |W interaction is bare   : no
#      |ALDA kernel in R-space  : no
#      |RL vectors    [exchange]:531
#      |RL vectors [correlation]:59
#      |E/h energy range    [ev]:-1.000000 - -1.000000
#      |Coupling range     [o/o]: 100.0000 -  100.0000
#    W |Interaction is diagonal : no
#      |Matrix size             :59
#      |Bands                   :1 - 8
#      |e/h energy range    [ev]:-1.000000 - -1.000000
#      |Poles              [o/o]: 100.0000
#      |RL vectors in the sum   :387
#      |[r,Vnl] included        : yes
#      |Field direction         :0.1000E-4  0.000000  0.000000
#      |Coulomb Cutoff          :none
#      |xc-Kernel               :none
#   RIM|RL components      [col]:0
#      |Random points      [col]:0
#  
#   Haydock|Accuracy (requested) [o/o]:  0.02000
#          |Accuracy (reached)   [o/o]:  0.01518
#          |Iteration                 :33
#
#    E/ev[1]      EEL-Im[2]    EEL-Re[3]    EELo-Im[4]   EELo-Re[5]   EEL`-Im[6]   EEL`-Re[7]
#
     0.00000     -0.00000     -0.01616     -0.00000     -0.01857     -0.00000     -0.01616
   0.2004E-1    0.2352E-4    -.1616E-1    0.2026E-4    -.1857E-1    0.2352E-4    -.1616E-1
   0.4008E-1    0.4704E-4    -.1615E-1    0.4053E-4    -.1856E-1    0.4704E-4    -.1615E-1
   0.6012E-1    0.7057E-4    -.1614E-1    0.6081E-4    -.1855E-1    0.7057E-4    -.1614E-1
   0.8016E-1    0.9412E-4    -.1612E-1    0.8110E-4    -.1854E-1    0.9412E-4    -.1612E-1
   0.1002       0.1177E-3    -.1610E-1    0.1014E-3    -.1852E-1    0.1177E-3    -.1610E-1
   0.1202       0.1413E-3    -.1608E-1    0.1217E-3    -.1850E-1    0.1413E-3    -.1608E-1
   0.1403       0.1649E-3    -.1604E-1    0.1421E-3    -.1847E-1    0.1649E-3    -.1604E-1
   0.1603       0.1886E-3    -.1601E-1    0.1625E-3    -.1844E-1    0.1886E-3    -.1601E-1
   0.1804       0.2123E-3    -.1597E-1    0.1829E-3    -.1841E-1    0.2123E-3    -.1597E-1
   0.2004       0.2360E-3    -.1592E-1    0.2034E-3    -.1837E-1    0.2360E-3    -.1592E-1
   0.2204       0.2598E-3    -.1587E-1    0.2239E-3    -.1832E-1    0.2598E-3    -.1587E-1
   0.2405       0.2837E-3    -.1582E-1    0.2444E-3    -.1828E-1    0.2837E-3    -.1582E-1
   0.2605       0.3076E-3    -.1576E-1    0.2651E-3    -.1823E-1    0.3076E-3    -.1576E-1
   0.2806       0.3316E-3    -.1570E-1    0.2857E-3    -.1817E-1    0.3316E-3    -.1570E-1
   0.3006       0.3556E-3    -.1563E-1    0.3065E-3    -.1811E-1    0.3556E-3    -.1563E-1
   0.3206       0.3798E-3    -.1556E-1    0.3273E-3    -.1805E-1    0.3798E-3    -.1556E-1
   0.3407       0.4040E-3    -.1548E-1    0.3482E-3    -.1798E-1    0.4040E-3    -.1548E-1
   0.3607       0.4283E-3    -.1539E-1    0.3692E-3    -.1791E-1    0.4283E-3    -.1539E-1
   0.3808       0.4528E-3    -.1531E-1    0.3902E-3    -.1783E-1    0.4528E-3    -.1531E-1
   0.4008       0.4773E-3    -.1521E-1    0.4114E-3    -.1775E-1    0.4773E-3    -.1521E-1
   0.4208       0.5020E-3    -.1511E-1    0.4327E-3    -.1767E-1    0.5020E-3    -.1511E-1
   0.4409       0.5267E-3    -.1501E-1    0.4541E-3    -.1758E-1    0.5267E-3    -.1501E-1
   0.4609       0.5516E-3    -.1490E-1    0.4756E-3    -.1749E-1    0.5516E-3    -.1490E-1
   0.4810       0.5767E-3    -.1479E-1    0.4972E-3    -.1739E-1    0.5767E-3    -.1479E-1
   0.5010       0.6019E-3    -.1467E-1    0.5190E-3    -.1729E-1    0.6019E-3    -.1467E-1
   0.5210       0.6273E-3    -.1455E-1    0.5409E-3    -.1718E-1    0.6273E-3    -.1455E-1
   0.5411       0.6528E-3    -.1442E-1    0.5629E-3    -.1707E-1    0.6528E-3    -.1442E-1
   0.5611       0.6785E-3    -.1429E-1    0.5851E-3    -.1696E-1    0.6785E-3    -.1429E-1
   0.5812       0.7044E-3    -.1415E-1    0.6075E-3    -.1684E-1    0.7044E-3    -.1415E-1
   0.6012       0.7305E-3    -.1401E-1    0.6301E-3    -.1671E-1    0.7305E-3    -.1401E-1
   0.6212       0.7568E-3    -.1386E-1    0.6528E-3    -.1659E-1    0.7568E-3    -.1386E-1
   0.6413       0.7833E-3    -.1371E-1    0.6758E-3    -.1645E-1    0.7833E-3    -.1371E-1
   0.6613       0.8101E-3    -.1355E-1    0.6989E-3    -.1632E-1    0.8101E-3    -.1355E-1
   0.6814       0.8371E-3    -.1338E-1    0.7223E-3    -.1617E-1    0.8371E-3    -.1338E-1
   0.7014       0.8644E-3    -.1321E-1    0.7460E-3    -.1603E-1    0.8644E-3    -.1321E-1
   0.7214       0.8919E-3    -.1304E-1    0.7699E-3    -.1588E-1    0.8919E-3    -.1304E-1
   0.7415       0.9198E-3    -.1285E-1    0.7941E-3    -.1572E-1    0.9198E-3    -.1285E-1
   0.7615       0.9480E-3    -.1267E-1    0.8185E-3    -.1556E-1    0.9480E-3    -.1267E-1
   0.7816       0.9765E-3    -.1248E-1    0.8433E-3    -.1539E-1    0.9765E-3    -.1248E-1
   0.8016       0.1005E-2    -.1228E-1    0.8684E-3    -.1522E-1    0.1005E-2    -.1228E-1
   0.8216       0.1035E-2    -.1207E-1    0.8939E-3    -.1505E-1    0.1035E-2    -.1207E-1
   0.8417       0.1064E-2    -.1186E-1    0.9198E-3    -.1486E-1    0.1064E-2    -.1186E-1
   0.8617       0.1094E-2    -.1165E-1    0.9460E-3    -.1468E-1    0.1094E-2    -.1165E-1
   0.8818       0.1125E-2    -.1143E-1    0.9727E-3    -.1449E-1    0.1125E-2    -.1143E-1
   0.9018       0.1156E-2    -.1120E-1    0.9998E-3    -.1429E-1    0.1156E-2    -.1120E-1
      0.9218       0.0012      -0.0110       0.0010      -0.0141       0.0012      -0.0110
      0.9419       0.0012      -0.0107       0.0011      -0.0139       0.0012      -0.0107
      0.9619       0.0013      -0.0105       0.0011      -0.0137       0.0013      -0.0105
      0.9820       0.0013      -0.0102       0.0011      -0.0134       0.0013      -0.0102
      1.0020       0.0013      -0.0100       0.0011      -0.0132       0.0013      -0.0100
      1.0220       0.0014      -0.0097       0.0012      -0.0130       0.0014      -0.0097
      1.0421       0.0014      -0.0094       0.0012      -0.0128       0.0014      -0.0094
      1.0621       0.0014      -0.0091       0.0012      -0.0125       0.0014      -0.0091
      1.0822       0.0015      -0.0089       0.0013      -0.0123       0.0015      -0.0089
      1.1022       0.0015      -0.0086       0.0013      -0.0120       0.0015      -0.0086
      1.1222       0.0015      -0.0083       0.0013      -0.0117       0.0015      -0.0083
      1.1423       0.0016      -0.0079       0.0014      -0.0115       0.0016      -0.0079
      1.1623       0.0016      -0.0076       0.0014      -0.0112       0.0016      -0.0076
      1.1824       0.0017      -0.0073       0.0015      -0.0109       0.0017      -0.0073
      1.2024       0.0017      -0.0070       0.0015      -0.0106       0.0017      -0.0070
      1.2224       0.0018      -0.0066       0.0015      -0.0103       0.0018      -0.0066
      1.2425       0.0018      -0.0063       0.0016      -0.0100       0.0018      -0.0063
      1.2625       0.0019      -0.0059       0.0016      -0.0097       0.0019      -0.0059
      1.2826       0.0019      -0.0055       0.0017      -0.0094       0.0019      -0.0055
      1.3026       0.0020      -0.0051       0.0017      -0.0090       0.0020      -0.0051
      1.3226       0.0021      -0.0047       0.0018      -0.0087       0.0021      -0.0047
      1.3427       0.0021      -0.0043       0.0019      -0.0083       0.0021      -0.0043
      1.3627       0.0022      -0.0039       0.0019      -0.0080       0.0022      -0.0039
      1.3828       0.0023      -0.0035       0.0020      -0.0076       0.0023      -0.0035
      1.4028       0.0024      -0.0031       0.0021      -0.0072       0.0024      -0.0031
      1.4228       0.0026      -0.0026       0.0022      -0.0068       0.0026      -0.0026
      1.4429       0.0027      -0.0022       0.0023      -0.0064       0.0027      -0.0022
      1.4629       0.0029      -0.0018       0.0024      -0.0059       0.0029      -0.0018
    1.483       0.3037E-2    -.1350E-2    0.2509E-2    -.5515E-2    0.3037E-2    -.1350E-2
    1.503       0.3197E-2    -.9718E-3    0.2664E-2    -.5077E-2    0.3197E-2    -.9718E-3
    1.523       0.3326E-2    -.6114E-3    0.2842E-2    -.4643E-2    0.3326E-2    -.6114E-3
    1.543       0.3412E-2    -.2451E-3    0.3044E-2    -.4224E-2    0.3412E-2    -.2451E-3
    1.563       0.3465E-2    0.1520E-3    0.3259E-2    -.3834E-2    0.3465E-2    0.1520E-3
    1.583       0.3504E-2    0.5887E-3    0.3463E-2    -.3485E-2    0.3504E-2    0.5886E-3
    1.603       0.3542E-2    0.1059E-2    0.3624E-2    -.3166E-2    0.3542E-2    0.1059E-2
    1.623       0.3581E-2    0.1558E-2    0.3719E-2    -.2841E-2    0.3581E-2    0.1558E-2
      1.6433       0.0036       0.0021       0.0038      -0.0025       0.0036       0.0021
      1.6633       0.0037       0.0027       0.0038      -0.0020       0.0037       0.0027
    1.683       0.3695E-2    0.3259E-2    0.3780E-2    -.1489E-2    0.3695E-2    0.3259E-2
    1.703       0.3756E-2    0.3906E-2    0.3826E-2    -.8964E-3    0.3756E-2    0.3906E-2
    1.723       0.3838E-2    0.4589E-2    0.3910E-2    -.2514E-3    0.3838E-2    0.4589E-2
    1.743       0.3946E-2    0.5306E-2    0.4034E-2    0.4377E-3    0.3945E-2    0.5305E-2
    1.764       0.4078E-2    0.6053E-2    0.4201E-2    0.1167E-2    0.4078E-2    0.6053E-2
      1.7836       0.0042       0.0068       0.0044       0.0019       0.0042       0.0068
      1.8036       0.0044       0.0076       0.0047       0.0027       0.0044       0.0076
      1.8236       0.0046       0.0085       0.0050       0.0036       0.0046       0.0085
      1.8437       0.0049       0.0094       0.0054       0.0045       0.0049       0.0094
      1.8637       0.0052       0.0103       0.0058       0.0055       0.0052       0.0103
      1.8838       0.0055       0.0113       0.0064       0.0065       0.0055       0.0113
      1.9038       0.0059       0.0123       0.0070       0.0075       0.0059       0.0123
      1.9238       0.0063       0.0134       0.0078       0.0087       0.0063       0.0134
      1.9439       0.0069       0.0146       0.0088       0.0098       0.0069       0.0146
      1.9639       0.0075       0.0158       0.0101       0.0111       0.0075       0.0158
      1.9840       0.0083       0.0171       0.0116       0.0123       0.0083       0.0171
      2.0040       0.0092       0.0184       0.0136       0.0135       0.0092       0.0184
     2.02405      0.01030      0.01989      0.01609      0.01443      0.01030      0.01989
     2.04409      0.01168      0.02139      0.01915      0.01499      0.01168      0.02139
     2.06413      0.01340      0.02292      0.02281      0.01477      0.01340      0.02292
     2.08417      0.01556      0.02441      0.02684      0.01332      0.01556      0.02441
     2.10421      0.01828      0.02576      0.03062      0.01021      0.01828      0.02576
      2.1242       0.0217       0.0267       0.0331       0.0055       0.0217       0.0267
    2.144       0.2579E-1    0.2699E-1    0.3349E-1    -.2012E-4    0.2579E-1    0.2699E-1
      2.1643       0.0305       0.0260       0.0316      -0.0050       0.0305       0.0260
      2.1844       0.0352       0.0233       0.0282      -0.0084       0.0353       0.0233
     2.20441      0.03903      0.01849      0.02433     -0.01006      0.03904      0.01850
     2.22445      0.04063      0.01232      0.02079     -0.01036      0.04064      0.01232
      2.2445       0.0395       0.0062       0.0178      -0.0098       0.0395       0.0062
    2.265       0.3620E-1    0.1538E-2    0.1552E-1    -.8672E-2    0.3620E-1    0.1525E-2
    2.285       0.3203E-1    -.1086E-2    0.1375E-1    -.7318E-2    0.3202E-1    -.1100E-2
    2.305       0.2800E-1    -.1951E-2    0.1245E-1    -.5859E-2    0.2798E-1    -.1959E-2
    2.325       0.2462E-1    -.1656E-2    0.1153E-1    -.4388E-2    0.2459E-1    -.1651E-2
    2.345       0.2200E-1    -.7602E-3    0.1091E-1    -.2967E-2    0.2198E-1    -.7356E-3
    2.365       0.2001E-1    0.3449E-3    0.1053E-1    -.1639E-2    0.2000E-1    0.3863E-3
    2.385       0.1841E-1    0.1466E-2    0.1029E-1    -.4301E-3    0.1844E-1    0.1505E-2
    2.405       0.1700E-1    0.2592E-2    0.1010E-1    0.6739E-3    0.1706E-1    0.2602E-2
    2.425       0.1570E-1    0.3810E-2    0.9908E-2    0.1738E-2    0.1575E-1    0.3777E-2
      2.4449       0.0145       0.0052       0.0097       0.0028       0.0145       0.0051
      2.4649       0.0135       0.0067       0.0095       0.0041       0.0135       0.0067
      2.4850       0.0127       0.0084       0.0094       0.0054       0.0126       0.0084
      2.5050       0.0121       0.0102       0.0095       0.0068       0.0120       0.0102
      2.5250       0.0116       0.0120       0.0097       0.0083       0.0116       0.0120
      2.5451       0.0114       0.0139       0.0100       0.0099       0.0113       0.0139
     2.56513      0.01129      0.01580      0.01055      0.01156      0.01128      0.01583
     2.58517      0.01135      0.01776      0.01129      0.01327      0.01137      0.01779
     2.60521      0.01157      0.01976      0.01229      0.01505      0.01160      0.01979
     2.62525      0.01194      0.02182      0.01359      0.01688      0.01197      0.02184
     2.64529      0.01247      0.02395      0.01527      0.01874      0.01250      0.02395
     2.66533      0.01317      0.02616      0.01743      0.02060      0.01320      0.02615
     2.68537      0.01407      0.02847      0.02021      0.02234      0.01410      0.02844
     2.70541      0.01522      0.03088      0.02376      0.02378      0.01523      0.03085
     2.72545      0.01665      0.03342      0.02820      0.02459      0.01666      0.03338
     2.74549      0.01845      0.03608      0.03356      0.02426      0.01844      0.03604
     2.76553      0.02071      0.03887      0.03952      0.02208      0.02068      0.03883
     2.78557      0.02355      0.04175      0.04520      0.01740      0.02351      0.04171
     2.80561      0.02714      0.04466      0.04911      0.01017      0.02708      0.04464
    2.826       0.3170E-1    0.4747E-1    0.4978E-1    0.1570E-2    0.3162E-1    0.4747E-1
      2.8457       0.0375       0.0499       0.0469      -0.0064       0.0374       0.0500
     2.86573      0.04470      0.05153      0.04168     -0.01208      0.04460      0.05165
     2.88577      0.05346      0.05158      0.03564     -0.01516      0.05341      0.05178
     2.90581      0.06346      0.04900      0.02996     -0.01611      0.06356      0.04929
     2.92585      0.07359      0.04275      0.02512     -0.01568      0.07395      0.04299
     2.94589      0.08191      0.03246      0.02120     -0.01446      0.08248      0.03238
     2.96593      0.08627      0.01921      0.01810     -0.01285      0.08670      0.01861
      2.9860       0.0857       0.0053       0.0157      -0.0111       0.0855       0.0044
      3.0060       0.0805      -0.0071       0.0137      -0.0093       0.0797      -0.0075
      3.0261       0.0723      -0.0164       0.0122      -0.0075       0.0715      -0.0161
      3.0461       0.0627      -0.0221       0.0110      -0.0058       0.0624      -0.0214
      3.0661       0.0532      -0.0245       0.0101      -0.0041       0.0534      -0.0239
    3.086       0.4489E-1    -.2443E-1    0.9370E-2    -.2568E-2    0.4535E-1    -.2412E-1
    3.106       0.3802E-1    -.2284E-1    0.8800E-2    -.1084E-2    0.3848E-1    -.2284E-1
    3.126       0.3257E-1    -.2043E-1    0.8372E-2    0.3187E-3    0.3291E-1    -.2065E-1
    3.146       0.2837E-1    -.1768E-1    0.8068E-2    0.1636E-2    0.2853E-1    -.1801E-1
    3.166       0.2517E-1    -.1489E-1    0.7866E-2    0.2857E-2    0.2515E-1    -.1522E-1
      3.1864       0.0228      -0.0122       0.0077       0.0040       0.0226      -0.0125
      3.2064       0.0210      -0.0099       0.0076       0.0050       0.0207      -0.0100
      3.2265       0.0195      -0.0078       0.0075       0.0059       0.0192      -0.0077
      3.2465       0.0182      -0.0060       0.0074       0.0067       0.0180      -0.0058
      3.2665       0.0170      -0.0044       0.0072       0.0076       0.0170      -0.0041
    3.287       0.1573E-1    -.2733E-2    0.7100E-2    0.8482E-2    0.1588E-1    -.2550E-2
    3.307       0.1461E-1    -.1033E-2    0.7026E-2    0.9356E-2    0.1480E-1    -.9830E-3
    3.327       0.1367E-1    0.7063E-3    0.7017E-2    0.1017E-1    0.1383E-1    0.6423E-3
    3.347       0.1295E-1    0.2416E-2    0.7040E-2    0.1089E-1    0.1303E-1    0.2293E-2
      3.3667       0.0124       0.0040       0.0070       0.0115       0.0124       0.0039
      3.3868       0.0120       0.0055       0.0069       0.0120       0.0120       0.0054
      3.4068       0.0117       0.0067       0.0067       0.0126       0.0116       0.0067
      3.4269       0.0113       0.0078       0.0063       0.0132       0.0112       0.0079
      3.4469       0.0108       0.0089       0.0060       0.0139       0.0108       0.0090
      3.4669       0.0102       0.0100       0.0056       0.0147       0.0102       0.0100
      3.4870       0.0097       0.0112       0.0053       0.0155       0.0097       0.0112
      3.5070       0.0092       0.0124       0.0051       0.0164       0.0092       0.0124
      3.5271       0.0087       0.0136       0.0049       0.0173       0.0087       0.0136
      3.5471       0.0083       0.0148       0.0048       0.0182       0.0083       0.0148
      3.5671       0.0079       0.0160       0.0046       0.0191       0.0079       0.0160
      3.5872       0.0075       0.0172       0.0045       0.0199       0.0075       0.0172
      3.6072       0.0072       0.0185       0.0044       0.0208       0.0072       0.0185
      3.6273       0.0069       0.0197       0.0044       0.0217       0.0069       0.0197
      3.6473       0.0066       0.0209       0.0043       0.0225       0.0066       0.0209
      3.6673       0.0064       0.0221       0.0043       0.0234       0.0064       0.0221
      3.6874       0.0062       0.0233       0.0042       0.0242       0.0062       0.0233
      3.7074       0.0061       0.0245       0.0042       0.0250       0.0061       0.0245
      3.7275       0.0060       0.0257       0.0042       0.0259       0.0060       0.0257
      3.7475       0.0058       0.0268       0.0041       0.0267       0.0058       0.0268
      3.7675       0.0057       0.0280       0.0041       0.0275       0.0057       0.0280
      3.7876       0.0057       0.0291       0.0041       0.0283       0.0057       0.0291
      3.8076       0.0056       0.0302       0.0041       0.0291       0.0056       0.0302
      3.8277       0.0055       0.0313       0.0041       0.0299       0.0055       0.0313
      3.8477       0.0055       0.0324       0.0041       0.0308       0.0055       0.0324
      3.8677       0.0054       0.0334       0.0041       0.0316       0.0054       0.0334
      3.8878       0.0054       0.0345       0.0041       0.0324       0.0054       0.0345
      3.9078       0.0053       0.0356       0.0041       0.0332       0.0053       0.0356
      3.9279       0.0053       0.0366       0.0041       0.0340       0.0053       0.0366
      3.9479       0.0053       0.0377       0.0041       0.0348       0.0053       0.0377
      3.9679       0.0052       0.0387       0.0041       0.0356       0.0052       0.0387
      3.9880       0.0052       0.0398       0.0041       0.0364       0.0052       0.0398
      4.0080       0.0052       0.0408       0.0041       0.0373       0.0052       0.0408
      4.0281       0.0052       0.0418       0.0041       0.0381       0.0052       0.0418
      4.0481       0.0052       0.0429       0.0041       0.0389       0.0052       0.0429
      4.0681       0.0052       0.0439       0.0041       0.0397       0.0052       0.0439
      4.0882       0.0051       0.0449       0.0041       0.0405       0.0051       0.0449
      4.1082       0.0051       0.0459       0.0041       0.0413       0.0051       0.0459
    4.128       0.5135E-2    0.4696E-1    0.4125E-2    0.4217E-1    0.5135E-2    0.4696E-1
    4.148       0.5133E-2    0.4799E-1    0.4136E-2    0.4299E-1    0.5133E-2    0.4799E-1
    4.168       0.5133E-2    0.4902E-1    0.4149E-2    0.4382E-1    0.5133E-2    0.4902E-1
    4.188       0.5135E-2    0.5004E-1    0.4161E-2    0.4465E-1    0.5135E-2    0.5004E-1
    4.208       0.5138E-2    0.5107E-1    0.4175E-2    0.4549E-1    0.5138E-2    0.5107E-1
    4.228       0.5142E-2    0.5210E-1    0.4189E-2    0.4633E-1    0.5142E-2    0.5210E-1
    4.248       0.5148E-2    0.5312E-1    0.4203E-2    0.4717E-1    0.5148E-2    0.5312E-1
    4.269       0.5155E-2    0.5416E-1    0.4218E-2    0.4801E-1    0.5155E-2    0.5416E-1
    4.289       0.5163E-2    0.5519E-1    0.4233E-2    0.4885E-1    0.5163E-2    0.5519E-1
    4.309       0.5172E-2    0.5622E-1    0.4249E-2    0.4970E-1    0.5172E-2    0.5622E-1
    4.329       0.5182E-2    0.5726E-1    0.4266E-2    0.5056E-1    0.5182E-2    0.5726E-1
    4.349       0.5193E-2    0.5829E-1    0.4283E-2    0.5141E-1    0.5193E-2    0.5829E-1
    4.369       0.5206E-2    0.5934E-1    0.4300E-2    0.5227E-1    0.5206E-2    0.5934E-1
    4.389       0.5219E-2    0.6038E-1    0.4317E-2    0.5313E-1    0.5219E-2    0.6038E-1
    4.409       0.5233E-2    0.6142E-1    0.4335E-2    0.5400E-1    0.5233E-2    0.6142E-1
    4.429       0.5247E-2    0.6247E-1    0.4354E-2    0.5487E-1    0.5247E-2    0.6247E-1
    4.449       0.5263E-2    0.6352E-1    0.4372E-2    0.5574E-1    0.5263E-2    0.6352E-1
    4.469       0.5279E-2    0.6458E-1    0.4391E-2    0.5662E-1    0.5279E-2    0.6458E-1
    4.489       0.5296E-2    0.6564E-1    0.4411E-2    0.5750E-1    0.5296E-2    0.6564E-1
    4.509       0.5313E-2    0.6670E-1    0.4430E-2    0.5839E-1    0.5313E-2    0.6670E-1
    4.529       0.5332E-2    0.6777E-1    0.4450E-2    0.5928E-1    0.5332E-2    0.6777E-1
    4.549       0.5350E-2    0.6883E-1    0.4471E-2    0.6017E-1    0.5350E-2    0.6883E-1
    4.569       0.5370E-2    0.6991E-1    0.4491E-2    0.6107E-1    0.5370E-2    0.6991E-1
    4.589       0.5390E-2    0.7099E-1    0.4512E-2    0.6197E-1    0.5390E-2    0.7099E-1
    4.609       0.5410E-2    0.7207E-1    0.4533E-2    0.6288E-1    0.5410E-2    0.7207E-1
    4.629       0.5431E-2    0.7315E-1    0.4555E-2    0.6379E-1    0.5431E-2    0.7315E-1
    4.649       0.5453E-2    0.7424E-1    0.4576E-2    0.6470E-1    0.5453E-2    0.7424E-1
    4.669       0.5475E-2    0.7534E-1    0.4598E-2    0.6562E-1    0.5475E-2    0.7534E-1
    4.689       0.5498E-2    0.7643E-1    0.4620E-2    0.6654E-1    0.5498E-2    0.7643E-1
    4.709       0.5521E-2    0.7754E-1    0.4643E-2    0.6747E-1    0.5521E-2    0.7754E-1
    4.729       0.5544E-2    0.7865E-1    0.4665E-2    0.6840E-1    0.5544E-2    0.7865E-1
    4.749       0.5568E-2    0.7976E-1    0.4688E-2    0.6934E-1    0.5568E-2    0.7976E-1
    4.770       0.5593E-2    0.8088E-1    0.4712E-2    0.7028E-1    0.5593E-2    0.8088E-1
    4.790       0.5618E-2    0.8200E-1    0.4735E-2    0.7123E-1    0.5618E-2    0.8200E-1
    4.810       0.5643E-2    0.8313E-1    0.4759E-2    0.7218E-1    0.5643E-2    0.8313E-1
    4.830       0.5669E-2    0.8426E-1    0.4782E-2    0.7313E-1    0.5669E-2    0.8426E-1
    4.850       0.5695E-2    0.8540E-1    0.4806E-2    0.7409E-1    0.5695E-2    0.8540E-1
    4.870       0.5721E-2    0.8654E-1    0.4831E-2    0.7506E-1    0.5721E-2    0.8654E-1
    4.890       0.5748E-2    0.8769E-1    0.4855E-2    0.7603E-1    0.5748E-2    0.8769E-1
    4.910       0.5775E-2    0.8884E-1    0.4880E-2    0.7701E-1    0.5775E-2    0.8884E-1
    4.930       0.5803E-2    0.9000E-1    0.4905E-2    0.7799E-1    0.5803E-2    0.9000E-1
    4.950       0.5831E-2    0.9117E-1    0.4930E-2    0.7897E-1    0.5831E-2    0.9117E-1
    4.970       0.5859E-2    0.9234E-1    0.4955E-2    0.7996E-1    0.5859E-2    0.9234E-1
    4.990       0.5888E-2    0.9351E-1    0.4981E-2    0.8096E-1    0.5888E-2    0.9351E-1
    5.010       0.5917E-2    0.9470E-1    0.5006E-2    0.8196E-1    0.5917E-2    0.9470E-1
      5.0301       0.0059       0.0959       0.0050       0.0830       0.0059       0.0959
      5.0501       0.0060       0.0971       0.0051       0.0840       0.0060       0.0971
      5.0701       0.0060       0.0983       0.0051       0.0850       0.0060       0.0983
      5.0902       0.0060       0.0995       0.0051       0.0860       0.0060       0.0995
      5.1102       0.0061       0.1007       0.0051       0.0870       0.0061       0.1007
      5.1303       0.0061       0.1019       0.0052       0.0881       0.0061       0.1019
      5.1503       0.0061       0.1031       0.0052       0.0891       0.0061       0.1031
      5.1703       0.0062       0.1044       0.0052       0.0901       0.0062       0.1044
      5.1904       0.0062       0.1056       0.0052       0.0912       0.0062       0.1056
      5.2104       0.0062       0.1069       0.0053       0.0923       0.0062       0.1069
      5.2305       0.0063       0.1081       0.0053       0.0933       0.0063       0.1081
      5.2505       0.0063       0.1094       0.0053       0.0944       0.0063       0.1094
      5.2705       0.0063       0.1106       0.0054       0.0954       0.0063       0.1106
      5.2906       0.0064       0.1119       0.0054       0.0965       0.0064       0.1119
      5.3106       0.0064       0.1132       0.0054       0.0976       0.0064       0.1132
      5.3307       0.0064       0.1145       0.0054       0.0987       0.0064       0.1145
      5.3507       0.0065       0.1157       0.0055       0.0998       0.0065       0.1157
      5.3707       0.0065       0.1170       0.0055       0.1009       0.0065       0.1170
      5.3908       0.0065       0.1183       0.0055       0.1020       0.0065       0.1183
      5.4108       0.0066       0.1197       0.0056       0.1031       0.0066       0.1197
      5.4309       0.0066       0.1210       0.0056       0.1042       0.0066       0.1210
      5.4509       0.0066       0.1223       0.0056       0.1053       0.0066       0.1223
      5.4709       0.0067       0.1236       0.0057       0.1065       0.0067       0.1236
      5.4910       0.0067       0.1250       0.0057       0.1076       0.0067       0.1250
      5.5110       0.0067       0.1263       0.0057       0.1087       0.0067       0.1263
      5.5311       0.0068       0.1277       0.0057       0.1099       0.0068       0.1277
      5.5511       0.0068       0.1290       0.0058       0.1111       0.0068       0.1290
      5.5711       0.0069       0.1304       0.0058       0.1122       0.0069       0.1304
      5.5912       0.0069       0.1318       0.0058       0.1134       0.0069       0.1318
      5.6112       0.0069       0.1332       0.0059       0.1145       0.0069       0.1332
      5.6313       0.0070       0.1346       0.0059       0.1157       0.0070       0.1346
      5.6513       0.0070       0.1360       0.0059       0.1169       0.0070       0.1360
      5.6713       0.0071       0.1374       0.0060       0.1181       0.0071       0.1374
      5.6914       0.0071       0.1388       0.0060       0.1193       0.0071       0.1388
      5.7114       0.0071       0.1402       0.0060       0.1205       0.0071       0.1402
      5.7315       0.0072       0.1417       0.0061       0.1217       0.0072       0.1417
      5.7515       0.0072       0.1431       0.0061       0.1229       0.0072       0.1431
      5.7715       0.0073       0.1445       0.0061       0.1242       0.0073       0.1445
      5.7916       0.0073       0.1460       0.0062       0.1254       0.0073       0.1460
      5.8116       0.0073       0.1475       0.0062       0.1266       0.0073       0.1475
      5.8317       0.0074       0.1489       0.0062       0.1279       0.0074       0.1489
      5.8517       0.0074       0.1504       0.0063       0.1291       0.0074       0.1504
      5.8717       0.0075       0.1519       0.0063       0.1304       0.0075       0.1519
      5.8918       0.0075       0.1534       0.0063       0.1316       0.0075       0.1534
      5.9118       0.0075       0.1549       0.0064       0.1329       0.0075       0.1549
      5.9319       0.0076       0.1564       0.0064       0.1342       0.0076       0.1564
      5.9519       0.0076       0.1580       0.0064       0.1355       0.0076       0.1580
      5.9719       0.0077       0.1595       0.0065       0.1368       0.0077       0.1595
      5.9920       0.0077       0.1610       0.0065       0.1381       0.0077       0.1610
      6.0120       0.0078       0.1626       0.0065       0.1394       0.0078       0.1626
      6.0321       0.0078       0.1641       0.0066       0.1407       0.0078       0.1641
      6.0521       0.0079       0.1657       0.0066       0.1420       0.0079       0.1657
      6.0721       0.0079       0.1673       0.0067       0.1434       0.0079       0.1673
      6.0922       0.0079       0.1689       0.0067       0.1447       0.0079       0.1689
      6.1122       0.0080       0.1705       0.0067       0.1460       0.0080       0.1705
      6.1323       0.0080       0.1721       0.0068       0.1474       0.0080       0.1721
      6.1523       0.0081       0.1737       0.0068       0.1487       0.0081       0.1737
      6.1723       0.0081       0.1753       0.0068       0.1501       0.0081       0.1753
      6.1924       0.0082       0.1770       0.0069       0.1515       0.0082       0.1770
      6.2124       0.0082       0.1786       0.0069       0.1529       0.0082       0.1786
      6.2325       0.0083       0.1803       0.0069       0.1542       0.0083       0.1803
      6.2525       0.0083       0.1819       0.0070       0.1556       0.0083       0.1819
      6.2725       0.0084       0.1836       0.0070       0.1570       0.0084       0.1836
      6.2926       0.0084       0.1853       0.0071       0.1585       0.0084       0.1853
      6.3126       0.0085       0.1870       0.0071       0.1599       0.0085       0.1870
      6.3327       0.0085       0.1887       0.0071       0.1613       0.0085       0.1887
      6.3527       0.0086       0.1904       0.0072       0.1627       0.0086       0.1904
      6.3727       0.0086       0.1921       0.0072       0.1642       0.0086       0.1921
      6.3928       0.0087       0.1938       0.0073       0.1656       0.0087       0.1938
      6.4128       0.0087       0.1956       0.0073       0.1671       0.0087       0.1956
      6.4329       0.0088       0.1973       0.0073       0.1686       0.0088       0.1973
      6.4529       0.0088       0.1991       0.0074       0.1700       0.0088       0.1991
      6.4729       0.0089       0.2009       0.0074       0.1715       0.0089       0.2009
      6.4930       0.0089       0.2027       0.0075       0.1730       0.0089       0.2027
      6.5130       0.0090       0.2045       0.0075       0.1745       0.0090       0.2045
      6.5331       0.0091       0.2063       0.0076       0.1760       0.0091       0.2063
      6.5531       0.0091       0.2081       0.0076       0.1775       0.0091       0.2081
      6.5731       0.0092       0.2099       0.0076       0.1791       0.0092       0.2099
      6.5932       0.0092       0.2118       0.0077       0.1806       0.0092       0.2118
      6.6132       0.0093       0.2136       0.0077       0.1821       0.0093       0.2136
      6.6333       0.0093       0.2155       0.0078       0.1837       0.0093       0.2155
      6.6533       0.0094       0.2174       0.0078       0.1853       0.0094       0.2174
      6.6733       0.0095       0.2193       0.0079       0.1868       0.0095       0.2193
      6.6934       0.0095       0.2212       0.0079       0.1884       0.0095       0.2212
      6.7134       0.0096       0.2231       0.0079       0.1900       0.0096       0.2231
      6.7335       0.0096       0.2250       0.0080       0.1916       0.0096       0.2250
      6.7535       0.0097       0.2269       0.0080       0.1932       0.0097       0.2269
      6.7735       0.0098       0.2289       0.0081       0.1948       0.0098       0.2289
      6.7936       0.0098       0.2308       0.0081       0.1964       0.0098       0.2308
      6.8136       0.0099       0.2328       0.0082       0.1981       0.0099       0.2328
      6.8337       0.0099       0.2348       0.0082       0.1997       0.0099       0.2348
      6.8537       0.0100       0.2368       0.0083       0.2014       0.0100       0.2368
      6.8737       0.0101       0.2388       0.0083       0.2030       0.0101       0.2388
      6.8938       0.0101       0.2408       0.0084       0.2047       0.0101       0.2408
      6.9138       0.0102       0.2429       0.0084       0.2064       0.0102       0.2429
      6.9339       0.0103       0.2449       0.0085       0.2081       0.0103       0.2449
      6.9539       0.0104       0.2470       0.0085       0.2097       0.0104       0.2470
      6.9739       0.0104       0.2491       0.0086       0.2115       0.0104       0.2491
      6.9940       0.0105       0.2511       0.0086       0.2132       0.0105       0.2511
      7.0140       0.0106       0.2533       0.0086       0.2149       0.0106       0.2533
      7.0341       0.0107       0.2554       0.0087       0.2166       0.0107       0.2554
      7.0541       0.0108       0.2575       0.0087       0.2184       0.0108       0.2575
      7.0741       0.0109       0.2596       0.0088       0.2201       0.0109       0.2596
      7.0942       0.0109       0.2618       0.0088       0.2219       0.0109       0.2618
      7.1142       0.0111       0.2640       0.0089       0.2237       0.0111       0.2640
      7.1343       0.0112       0.2662       0.0090       0.2255       0.0112       0.2662
      7.1543       0.0113       0.2684       0.0090       0.2273       0.0113       0.2684
      7.1743       0.0114       0.2705       0.0091       0.2291       0.0114       0.2705
      7.1944       0.0116       0.2727       0.0091       0.2309       0.0116       0.2727
      7.2144       0.0117       0.2749       0.0092       0.2327       0.0117       0.2749
      7.2345       0.0118       0.2771       0.0092       0.2346       0.0118       0.2771
      7.2545       0.0119       0.2792       0.0093       0.2364       0.0119       0.2792
      7.2745       0.0119       0.2814       0.0093       0.2383       0.0119       0.2814
      7.2946       0.0119       0.2836       0.0094       0.2402       0.0119       0.2836
      7.3146       0.0120       0.2859       0.0094       0.2420       0.0120       0.2859
      7.3347       0.0120       0.2882       0.0095       0.2439       0.0120       0.2882
      7.3547       0.0120       0.2906       0.0095       0.2458       0.0120       0.2906
      7.3747       0.0121       0.2929       0.0096       0.2478       0.0121       0.2929
      7.3948       0.0122       0.2953       0.0097       0.2497       0.0122       0.2953
      7.4148       0.0123       0.2977       0.0097       0.2516       0.0123       0.2977
      7.4349       0.0124       0.3001       0.0098       0.2536       0.0124       0.3001
      7.4549       0.0125       0.3025       0.0098       0.2555       0.0125       0.3025
      7.4749       0.0126       0.3049       0.0099       0.2575       0.0126       0.3049
      7.4950       0.0127       0.3073       0.0099       0.2595       0.0127       0.3073
     7.51503      0.01274      0.30972      0.01000      0.26151      0.01274      0.30972
     7.53507      0.01280      0.31215      0.01006      0.26352      0.01280      0.31215
     7.55511      0.01283      0.31461      0.01012      0.26554      0.01283      0.31461
     7.57515      0.01287      0.31711      0.01019      0.26757      0.01287      0.31711
     7.59519      0.01291      0.31963      0.01025      0.26962      0.01291      0.31963
     7.61523      0.01296      0.32219      0.01031      0.27168      0.01296      0.32219
     7.63527      0.01302      0.32476      0.01037      0.27375      0.01302      0.32476
     7.65531      0.01308      0.32736      0.01043      0.27583      0.01308      0.32736
     7.67535      0.01315      0.32997      0.01050      0.27793      0.01315      0.32997
     7.69539      0.01323      0.33261      0.01056      0.28004      0.01323      0.33261
     7.71543      0.01331      0.33526      0.01063      0.28216      0.01331      0.33526
     7.73547      0.01339      0.33793      0.01069      0.28430      0.01339      0.33793
     7.75551      0.01348      0.34061      0.01076      0.28644      0.01348      0.34061
     7.77555      0.01357      0.34332      0.01082      0.28861      0.01357      0.34332
     7.79559      0.01366      0.34604      0.01089      0.29078      0.01366      0.34604
     7.81563      0.01375      0.34879      0.01096      0.29297      0.01375      0.34879
     7.83567      0.01385      0.35155      0.01102      0.29517      0.01385      0.35155
     7.85571      0.01395      0.35433      0.01109      0.29738      0.01395      0.35433
     7.87575      0.01405      0.35713      0.01116      0.29961      0.01405      0.35713
     7.89579      0.01415      0.35995      0.01123      0.30185      0.01415      0.35995
     7.91583      0.01425      0.36280      0.01130      0.30411      0.01425      0.36280
     7.93587      0.01436      0.36566      0.01137      0.30638      0.01436      0.36566
     7.95591      0.01447      0.36854      0.01144      0.30867      0.01447      0.36854
     7.97595      0.01458      0.37145      0.01152      0.31097      0.01458      0.37145
     7.99599      0.01469      0.37438      0.01159      0.31328      0.01469      0.37438
     8.01603      0.01481      0.37733      0.01166      0.31561      0.01481      0.37733
     8.03607      0.01492      0.38031      0.01174      0.31795      0.01492      0.38031
     8.05611      0.01504      0.38331      0.01181      0.32031      0.01504      0.38331
     8.07615      0.01516      0.38633      0.01189      0.32268      0.01516      0.38633
     8.09619      0.01529      0.38937      0.01197      0.32507      0.01529      0.38937
     8.11623      0.01542      0.39245      0.01205      0.32748      0.01542      0.39245
     8.13627      0.01555      0.39554      0.01212      0.32990      0.01555      0.39554
     8.15631      0.01568      0.39867      0.01220      0.33233      0.01568      0.39867
     8.17635      0.01582      0.40182      0.01228      0.33479      0.01582      0.40182
     8.19639      0.01596      0.40499      0.01237      0.33726      0.01596      0.40499
     8.21643      0.01611      0.40820      0.01245      0.33974      0.01611      0.40820
     8.23647      0.01626      0.41143      0.01253      0.34224      0.01626      0.41143
     8.25651      0.01642      0.41470      0.01262      0.34476      0.01642      0.41470
     8.27655      0.01658      0.41799      0.01270      0.34730      0.01658      0.41799
     8.29659      0.01675      0.42132      0.01279      0.34985      0.01675      0.42132
     8.31663      0.01693      0.42468      0.01288      0.35242      0.01693      0.42468
     8.33667      0.01712      0.42807      0.01297      0.35501      0.01712      0.42807
     8.35671      0.01732      0.43149      0.01306      0.35761      0.01732      0.43150
     8.37675      0.01754      0.43496      0.01316      0.36024      0.01754      0.43496
     8.39679      0.01777      0.43846      0.01325      0.36288      0.01777      0.43846
     8.41683      0.01803      0.44199      0.01335      0.36554      0.01803      0.44199
     8.43687      0.01831      0.44556      0.01345      0.36822      0.01831      0.44556
     8.45691      0.01862      0.44916      0.01355      0.37092      0.01862      0.44916
     8.47695      0.01898      0.45279      0.01365      0.37365      0.01898      0.45279
     8.49699      0.01939      0.45644      0.01375      0.37639      0.01939      0.45644
     8.51703      0.01984      0.46008      0.01386      0.37915      0.01985      0.46008
     8.53707      0.02035      0.46369      0.01397      0.38193      0.02035      0.46369
     8.55711      0.02088      0.46724      0.01408      0.38474      0.02088      0.46724
     8.57715      0.02138      0.47072      0.01420      0.38757      0.02138      0.47071
     8.59719      0.02180      0.47414      0.01432      0.39042      0.02179      0.47413
     8.61723      0.02209      0.47756      0.01445      0.39329      0.02207      0.47755
     8.63727      0.02223      0.48104      0.01457      0.39619      0.02221      0.48105
     8.65731      0.02227      0.48468      0.01471      0.39912      0.02226      0.48470
     8.67735      0.02227      0.48850      0.01485      0.40207      0.02228      0.48851
     8.69739      0.02231      0.49249      0.01499      0.40504      0.02231      0.49250
     8.71743      0.02240      0.49662      0.01515      0.40805      0.02241      0.49662
     8.73747      0.02258      0.50087      0.01531      0.41109      0.02259      0.50086
     8.75751      0.02284      0.50521      0.01549      0.41415      0.02285      0.50520
     8.77755      0.02318      0.50964      0.01567      0.41725      0.02318      0.50963
     8.79760      0.02360      0.51416      0.01587      0.42038      0.02360      0.51415
     8.81764      0.02410      0.51876      0.01609      0.42355      0.02411      0.51876
     8.83768      0.02470      0.52346      0.01633      0.42675      0.02470      0.52345
     8.85772      0.02541      0.52826      0.01659      0.43000      0.02541      0.52825
     8.87776      0.02624      0.53317      0.01689      0.43329      0.02624      0.53316
     8.89780      0.02722      0.53819      0.01722      0.43662      0.02722      0.53818
     8.91784      0.02839      0.54333      0.01760      0.44000      0.02839      0.54333
     8.93788      0.02980      0.54860      0.01804      0.44343      0.02978      0.54860
     8.95792      0.03149      0.55398      0.01856      0.44690      0.03148      0.55399
     8.97796      0.03356      0.55946      0.01919      0.45043      0.03354      0.55947
     8.99800      0.03610      0.56499      0.01994      0.45398      0.03608      0.56501
     9.01803      0.03921      0.57048      0.02086      0.45756      0.03921      0.57051
     9.03808      0.04302      0.57577      0.02200      0.46111      0.04303      0.57582
     9.05812      0.04758      0.58065      0.02341      0.46458      0.04764      0.58069
     9.07816      0.05294      0.58486      0.02513      0.46783      0.05303      0.58484
     9.09820      0.05907      0.58803      0.02716      0.47067      0.05913      0.58794
     9.11824      0.06584      0.58969      0.02937      0.47285      0.06579      0.58957
     9.13828      0.07276      0.58921      0.03141      0.47417      0.07262      0.58917
     9.15832      0.07880      0.58618      0.03274      0.47466      0.07871      0.58626
     9.17836      0.08261      0.58089      0.03290      0.47480      0.08264      0.58100
     9.19840      0.08309      0.57450      0.03187      0.47529      0.08317      0.57453
     9.21844      0.07995      0.56873      0.03010      0.47664      0.07999      0.56870
     9.23848      0.07399      0.56516      0.02812      0.47891      0.07399      0.56513
     9.25852      0.06671      0.56455      0.02631      0.48190      0.06670      0.56454
     9.27856      0.05952      0.56665      0.02480      0.48536      0.05952      0.56665
     9.29860      0.05322      0.57070      0.02361      0.48910      0.05322      0.57070
     9.31864      0.04805      0.57595      0.02269      0.49298      0.04805      0.57595
     9.33868      0.04394      0.58184      0.02199      0.49693      0.04394      0.58184
     9.35872      0.04072      0.58804      0.02146      0.50091      0.04072      0.58804
     9.37876      0.03820      0.59436      0.02107      0.50491      0.03820      0.59436
     9.39880      0.03624      0.60068      0.02078      0.50890      0.03624      0.60068
     9.41884      0.03471      0.60695      0.02057      0.51290      0.03471      0.60695
     9.43888      0.03350      0.61317      0.02043      0.51690      0.03350      0.61317
     9.45892      0.03256      0.61933      0.02033      0.52089      0.03256      0.61933
     9.47896      0.03181      0.62542      0.02027      0.52489      0.03181      0.62542
     9.49900      0.03123      0.63146      0.02025      0.52890      0.03123      0.63146
     9.51904      0.03078      0.63745      0.02025      0.53291      0.03078      0.63745
     9.53908      0.03043      0.64340      0.02027      0.53693      0.03043      0.64340
     9.55912      0.03016      0.64933      0.02031      0.54097      0.03016      0.64933
     9.57916      0.02997      0.65523      0.02037      0.54502      0.02997      0.65523
     9.59920      0.02984      0.66113      0.02044      0.54909      0.02984      0.66113
     9.61924      0.02976      0.66702      0.02052      0.55317      0.02976      0.66702
     9.63928      0.02972      0.67291      0.02061      0.55728      0.02972      0.67291
     9.65932      0.02972      0.67880      0.02072      0.56141      0.02972      0.67880
     9.67936      0.02975      0.68471      0.02082      0.56556      0.02975      0.68471
     9.69940      0.02981      0.69063      0.02094      0.56973      0.02981      0.69063
     9.71944      0.02990      0.69657      0.02106      0.57393      0.02990      0.69657
     9.73948      0.03000      0.70254      0.02119      0.57815      0.03000      0.70254
     9.75952      0.03013      0.70853      0.02132      0.58240      0.03013      0.70853
     9.77956      0.03027      0.71455      0.02146      0.58668      0.03027      0.71455
     9.79960      0.03043      0.72060      0.02161      0.59099      0.03043      0.72060
     9.81964      0.03061      0.72670      0.02175      0.59532      0.03061      0.72670
     9.83968      0.03080      0.73283      0.02191      0.59969      0.03080      0.73283
     9.85972      0.03100      0.73900      0.02206      0.60409      0.03100      0.73900
     9.87976      0.03122      0.74521      0.02223      0.60852      0.03122      0.74521
     9.89980      0.03145      0.75147      0.02239      0.61298      0.03145      0.75147
     9.91984      0.03169      0.75778      0.02256      0.61748      0.03169      0.75778
     9.93988      0.03194      0.76413      0.02273      0.62201      0.03194      0.76413
     9.95992      0.03220      0.77054      0.02291      0.62658      0.03220      0.77054
     9.97996      0.03248      0.77701      0.02309      0.63118      0.03248      0.77701
    10.00000      0.03276      0.78353      0.02328      0.63582      0.03276      0.78353
# 
# 05/18/2017 at 16:43 YAMBO_RT @ anomaly [start]
# 05/18/2017 at 16:43                    [end]
#  
# Timing   [Min/Max/Average]: 04s/04s/04s
#
# .-Input file : INPUTS/09_bse_10fs_Xonly
# | optics                         # [R OPT] Optics
# | bse                            # [R BSE] Bethe Salpeter Equation.
# | bsk                            # [R BSK] Bethe Salpeter Equation kernel
# | bss                            # [R BSS] Bethe Salpeter Equation solver
# | em1s                           # [R Xs] Static Inverse Dielectric Matrix
# | BoseTemp= 0.000000     eV      # Bosonic Temperature
# | FFTGvecs=  387         RL      # [FFT] Plane-waves
# | Chimod= "hartree"              # [X] IP/Hartree/ALDA/LRC/BSfxc
# | BSEmod= "retarded"             # [BSE] resonant/retarded/coupling
# | BSKmod= "SEX"                  # [BSE] IP/Hartree/HF/ALDA/SEX/BSfxc
# | BSSmod= "h"                    # [BSS] (h)aydock/(d)iagonalization/(i)nversion/(t)ddft`
# | BSENGexx=  531         RL      # [BSK] Exchange components
# | BSENGBlk=  59          RL      # [BSK] Screened interaction block size
# | #WehCpl                        # [BSK] eh interaction included also in coupling
# | KfnQPdb= "E < 08_ypp_gw_10fs_Xonly/ndb.QP_merged_1_gw_ppa" # [EXTQP BSK BSS] Database
# | % BEnRange
# |   0.00000 | 10.00000 | eV      # [BSS] Energy range
# | %
# | % BDmRange
# |   0.10000 |  0.10000 | eV      # [BSS] Damping range
# | %
# | BEnSteps=  500                 # [BSS] Energy steps
# | % BLongDir
# | 0.1000E-4 | 0.000    | 0.000    |        # [BSS] [cc] Electric Field
# | %
# | % BSEBands
# |   2 |  7 |                     # [BSK] Bands range
# | %
# | BSHayTrs=  0.02000             # [BSS] Relative [o/o] Haydock treshold. Strict(>0)/Average(<0)
# | XfnRTdb= "f @ 0.1 ps < 04_elel+elph_0K/ndb.RT_carriers" # [EXTRT Xd] Database
# | % BndsRnXs
# |   1 |  8 |                     # [Xs] Polarization function bands
# | %
# | NGsBlkXs=  59          RL      # [Xs] Response block size
# | GrFnTpXs= "R"                  # [Xs] Green`s function (T)ordered,(R)etarded,(r)senant,(a)ntiresonant [T, R, r, Ta, Ra]
# | % DmRngeXs
# |   0.10000 |  0.10000 | eV      # [Xs] Damping range
# | %
# | % LongDrXs
# | 0.1000E-4 | 0.000    | 0.000    |        # [Xs] [cc] Electric Field
# | %
