#                                                           
# ooooo   oooo ..     ooo        ooo ooooooooo.    .oooo.   
#  `88.   .8" .88.    `88.       .88 `88"   `Y8b  dP"  `Yb  
#   `88. .8" .8"88.    888b     d"88  88     888 88      88 
#    `88.8" .8" `88.   8 Y88. .P  88  88oooo888" 88      88 
#     `88" .88ooo888.  8  `888"   88  88    `88b 88      88 
#      88 .8"     `88. 8    Y     88  88    .88P `8b    d8" 
#     o88o88o      888o8          88 o88bood8P"   `Ybod8P"  
#                                                           
#                                                           
#         Version 4.3.0 Revision 15185 Hash 3effa9d         
#                   MPI+SLK+OpenMP Build                    
#                 http://www.yambo-code.org                 
#
# Joint density of states @ Q(1) [q->0 direction] :0.5774E-5 0.5774E-5 0.5774E-5
#
# - Energies      are Teter 93(XC)
# - The Green`s function is Retarded -
#
#   BSK|Identifier              :9791
#      |Dimension               :32
#      |Bands                   :7 - 10
#      |Exchange           [res]: yes
#      |Correlation        [res]: no
#      |Kernel`s coupling       : no
#      |Exchange           [cpl]: no
#      |Correlation        [cpl]: no
#      |W interaction is bare   : no
#      |ALDA kernel in R-space  : yes
#      |RL vectors    [exchange]:51
#      |E/h energy range    [ev]:-1.000000 - -1.000000
#      |Coupling range     [o/o]: 100.0000 -  100.0000
#
#    E/ev[1]      jdos-Im[2]   jdos-Re[3]   jdoso-Im[4]  jdoso-Re[5]  jdos`-Im[6]  jdos`-Re[7]
#
     4.00000      1.97437     15.63274      2.94145     17.81447
     4.01003      2.32494     16.41409      3.59954     18.93560
     4.02005      2.77974     17.32263      4.50372     20.26573
     4.03008      3.38335     18.38915      5.78619     21.85071
     4.04010      4.20584     19.65205      7.67198     23.72746
     4.05013      5.36143     21.15642     10.55454     25.87204
     4.06015      7.04269     22.94443     15.11339     28.02549
     4.07018      9.58430     25.01900     22.36169     29.16655
     4.08020     13.57012     27.21941     32.79440     26.34758
     4.09023     19.93217     28.83086     42.46589     15.02618
     4.10025     29.52653     27.59555     41.81456     -1.77194
     4.11028     40.25314     19.02684     31.65595    -12.13520
     4.12030     43.29187      2.70640     21.49119    -14.34231
     4.13033     34.93469    -10.31058     14.56447    -13.00535
     4.14035     24.13889    -14.45690     10.21895    -10.82058
     4.15038     16.26972    -13.77744      7.46498     -8.69049
     4.16040     11.28238    -11.70319      5.65747     -6.83527
    4.170426     8.143940    -9.522308     4.424752    -5.268109
    4.180451     6.106941    -7.584303     3.553739    -3.949798
    4.190476     4.733129    -5.939355     2.918925    -2.834683
    4.200501     3.771996    -4.556262     2.443684    -1.882753
    4.210526     3.077490    -3.389336     2.079664    -1.061854
    4.220551     2.561407    -2.396541     1.795274    -0.346696
    4.230577     2.168580    -1.543458     1.569276     0.282449
    4.240602     1.863330    -0.802931     1.387000     0.841022
    4.250627     1.621864    -0.153745     1.238082     1.341192
    4.260652     1.427885     0.420654     1.115042     1.792607
    4.270677     1.269928     0.933340     1.012363     2.203063
    4.280702     1.139789     1.394617     0.925934     2.578810
    4.290727     1.031452     1.812744     0.852625     2.924976
    4.300752     0.940445     2.194388     0.790028     3.245781
    4.310777     0.863380     2.544976     0.736264     3.544734
    4.320802     0.797661     2.868971     0.689853     3.824769
    4.330827     0.741270     3.170069     0.649614     4.088365
    4.340852     0.692623     3.451346     0.614600     4.337615
    4.350877     0.650456     3.715419     0.584039     4.574339
    4.360902     0.613761     3.964486     0.557303     4.800078
    4.370927     0.581721     4.200418     0.533873     5.016171
    4.380952     0.553667     4.424833     0.513320     5.223789
    4.390977     0.529052     4.639125     0.495287     5.423957
    4.401003     0.507423     4.844510     0.479473     5.617581
    4.411027     0.488401     5.042038     0.465626     5.805453
    4.421052     0.471670     5.232657     0.453530     5.988303
    4.431077     0.456964     5.417189     0.443006     6.166765
    4.441103     0.444057     5.596366     0.433897     6.341414
    4.451128     0.432760     5.770844     0.426072     6.512776
    4.461153     0.422909     5.941211     0.419417     6.681323
    4.471178     0.414366     6.108005     0.413835     6.847497
    4.481203     0.407010     6.271706     0.409244     7.011699
    4.491228     0.400741     6.432751     0.405571     7.174296
    4.501253     0.395471     6.591562     0.402755     7.335648
    4.511278     0.391123     6.748502     0.400745     7.496073
    4.521303     0.387633     6.903926     0.399495     7.655880
    4.531328     0.384946     7.058154     0.398969     7.815361
    4.541354     0.383014     7.211496     0.399135     7.974795
    4.551379     0.381797     7.364237     0.399967     8.134449
    4.561403     0.381260     7.516646     0.401444     8.294573
    4.571428     0.381376     7.669005     0.403549     8.455438
    4.581454     0.382122     7.821551     0.406273     8.617279
    4.591479     0.383477     7.974530     0.409604     8.780338
    4.601504     0.385428     8.128193     0.413540     8.944857
    4.611529     0.387965     8.282749     0.418079     9.111078
    4.621554     0.391080     8.438451     0.423223     9.279232
    4.631579     0.394769     8.595522     0.428979     9.449566
    4.641604     0.399033     8.754173     0.435355     9.622318
    4.651629     0.403874     8.914658     0.442364     9.797751
    4.661654     0.409299     9.077188     0.450021     9.976106
     4.67168      0.41532      9.24201      0.45834     10.15765
     4.68170      0.42194      9.40935      0.46736     10.34264
     4.69173      0.42919      9.57946      0.47709     10.53138
     4.70175      0.43707      9.75258      0.48756     10.72413
     4.71178      0.44562      9.92897      0.49881     10.92121
     4.72180      0.45486     10.10890      0.51089     11.12292
     4.73183      0.46481     10.29267      0.52382     11.32961
     4.74185      0.47552     10.48054      0.53766     11.54164
     4.75188      0.48702     10.67282      0.55247     11.75935
     4.76190      0.49935     10.86985      0.56830     11.98315
     4.77193      0.51256     11.07195      0.58522     12.21346
     4.78196      0.52671     11.27949      0.60330     12.45071
     4.79198      0.54186     11.49284      0.62263     12.69538
     4.80200      0.55807     11.71242      0.64330     12.94800
     4.81203      0.57541     11.93867      0.66542     13.20911
     4.82206      0.59398     12.17204      0.68909     13.47929
     4.83208      0.61387     12.41303      0.71444     13.75918
     4.84211      0.63517     12.66218      0.74161     14.04946
     4.85213      0.65801     12.92008      0.77077     14.35089
     4.86216      0.68251     13.18734      0.80209     14.66430
     4.87218      0.70882     13.46467      0.83577     14.99055
     4.88221      0.73711     13.75279      0.87204     15.33061
     4.89223      0.76755     14.05251      0.91115     15.68556
     4.90226      0.80036     14.36473      0.95340     16.05654
     4.91228      0.83578     14.69041      0.99910     16.44487
     4.92231      0.87407     15.03061      1.04863     16.85193
     4.93233      0.91553     15.38652      1.10242     17.27932
     4.94236      0.96051     15.75943      1.16095     17.72874
     4.95238      1.00942     16.15079      1.22479     18.20220
     4.96241      1.06272     16.56223      1.29459     18.70185
     4.97243      1.12093     16.99553      1.37110     19.23011
     4.98246      1.18467     17.45268      1.45521     19.78975
     4.99248      1.25467     17.93598      1.54794     20.38386
     5.00251      1.33176     18.44794      1.65050     21.01595
     5.01253      1.41694     18.99151      1.76434     21.69008
     5.02256      1.51140     19.56997      1.89116     22.41082
     5.03258      1.61653     20.18710      2.03303     23.18344
     5.04261      1.73402     20.84724      2.19242     24.01408
     5.05263      1.86592     21.55540      2.37234     24.90981
     5.06266      2.01472     22.31741      2.57649     25.87892
     5.07268      2.18347     23.14008      2.80943     26.93117
     5.08271      2.37596     24.03144      3.07688     28.07807
     5.09273      2.59694     25.00091      3.38601     29.33333
     5.10276      2.85245     26.05990      3.74600     30.71352
     5.11278      3.15020     27.22198      4.16869     32.23858
     5.12281      3.50023     28.50362      4.66955     33.93280
     5.13283      3.91576     29.92500      5.26914     35.82615
     5.14286      4.41453     31.51092      5.99521     37.95583
     5.15288      5.02072     33.29229      6.88587     40.36829
     5.16291      5.76816     35.30806      7.99473     43.12265
     5.17293      6.70494     37.60727      9.39863     46.29383
     5.18296      7.90158     40.25237     11.21083     49.97777
     5.19298      9.46434     43.32251     13.60306     54.29687
     5.20301     11.55877     46.91609     16.84415     59.40446
     5.21303     14.45197     51.14837     21.36988     65.48188
     5.22306     18.59051     56.12957     27.91220     72.70680
     5.23308     24.74168     61.87799     37.73925     81.12549
     5.24311     34.21532     68.02411     53.06674     90.21256
     5.25313     48.97599     72.91991     77.50291     97.47572
      5.2632      70.2879      71.7452     114.8160      94.7619
      5.2732      92.8510      57.0644     158.8316      64.5478
      5.2832     103.3590      31.4996     176.0216       1.0204
      5.2932     101.5535       8.9861     145.8006     -53.8661
      5.3033      95.5815     -10.3648     102.3248     -72.5997
     5.31328     82.08475    -27.54985     70.04808    -70.08493
     5.32331     62.86504    -35.01295     49.84921    -61.00560
     5.33333     46.63414    -32.55390     37.65142    -51.04459
     5.34336     36.56897    -25.73524     30.45638    -41.74940
     5.35338     31.74827    -18.03894     26.64114    -33.34000
     5.36341     31.13815    -10.96625     25.54322    -25.72865
     5.37343     34.11661     -5.87802     27.22671    -18.98955
     5.38346     38.99216     -4.35439     32.33448    -13.96685
     5.39348     43.32661     -5.45968     41.13994    -13.45449
     5.40351     48.63306     -8.04592     49.58635    -21.88932
     5.41353     54.39734    -16.55197     48.01120    -36.22640
     5.42356     52.10144    -30.47862     37.08019    -44.47969
     5.43358     40.72838    -39.07750     26.25456    -44.81008
     5.44361     29.15090    -39.51496     18.78023    -41.78613
     5.45363     21.11739    -36.19049     13.98182    -38.08257
     5.46366     16.06995    -32.00466     10.85044    -34.58035
     5.47368     12.95680    -27.93962      8.72546    -31.47915
     5.48371     11.09932    -24.21115      7.22355    -28.77432
     5.49373     10.15668    -20.80747      6.12288    -26.41142
     5.50376     10.03049    -17.68766      5.29122    -24.33193
     5.51378     10.82645    -14.90850      4.64679    -22.48496
     5.52381     12.80039    -12.85656      4.13712    -20.82893
     5.53383     15.89083    -12.65735      3.72739    -19.33045
     5.54386     18.19319    -15.61119      3.39384    -17.96274
     5.55388     16.70235    -19.68909      3.11974    -16.70395
     5.56391     12.80939    -21.20464      2.89320    -15.53633
     5.57394      9.41616    -20.40893      2.70553    -14.44507
     5.58396      7.14495    -18.77938      2.55035    -13.41765
     5.59398      5.69070    -17.02972      2.42299    -12.44334
     5.60401      4.74090    -15.37503      2.32001    -11.51261
     5.61404      4.10129    -13.85473      2.23902    -10.61700
     5.62406      3.66058    -12.45698      2.17843     -9.74872
     5.63409      3.35511    -11.15812      2.13738     -8.90037
    5.644110     3.148015    -9.933848     2.115736    -8.064777
    5.654136     3.018216    -8.761825     2.114034    -7.234715
    5.664161     2.954661    -7.621589     2.133621    -6.402672
    5.674186     2.953564    -6.493723     2.176774    -5.560608
    5.684210     3.017474    -5.358882     2.246952    -4.699646
    5.694236     3.155827    -4.196589     2.349200    -3.809556
    5.704261     3.387108    -2.984486     2.490722    -2.878464
    5.714286     3.743535    -1.697581     2.681836    -1.892086
    5.724311     4.280069    -0.309280     2.937463    -0.832906
    5.734335     5.091404     1.202116     3.279501     0.320810
    5.744361     6.342584     2.829400     3.740911     1.596554
    5.754386     8.311471     4.455427     4.372530     3.028625
     5.76441     11.36911      5.61960      5.25536      4.65901
     5.77444     15.47620      5.11399      6.52296      6.53467
     5.78446     18.63855      1.73882      8.40310      8.69297
     5.79449     18.13876     -2.14389     11.29400     11.10819
     5.80451     15.91776     -3.04718     15.88306     13.51292
     5.81454     15.07565     -1.53590     23.18783     14.85839
     5.82456     16.65498      0.63492     33.66128     12.14032
     5.83459     21.02683      1.74191     43.19443      0.84643
     5.84461     27.55899     -1.01200     42.24050    -15.69480
     5.85464     31.56491     -9.85782     31.97992    -25.60976
     5.86466     27.69900    -19.48312     21.87251    -27.45815
     5.87469     20.06459    -23.40963     15.01292    -25.85418
     5.88471     13.85931    -23.09139     10.71262    -23.43825
     5.89474      9.81476    -21.33335      7.98778    -21.08658
     5.90476      7.26040    -19.36767      6.20139    -19.01027
     5.91479      5.60673    -17.55689      4.98677    -17.21915
     5.92481      4.49566    -15.96840      4.13382    -15.67230
     5.93484      3.72195    -14.58574      3.51894    -14.32265
     5.94486      3.16654    -13.37442      3.06698    -13.12882
     5.95489      2.75816    -12.30075      2.73082    -12.05690
     5.96491      2.45269    -11.33621      2.48014    -11.07959
     5.97494      2.22198    -10.45765      2.29514    -10.17474
    5.984963     2.047637    -9.646317     2.162909    -9.323956
    5.994987     1.917499    -8.886900     2.075285    -8.511533
    6.005013     1.823509    -8.166442     2.027660    -7.723386
    6.015038     1.760536    -7.473832     2.018356    -6.946409
    6.025063     1.725635    -6.799020     2.048449    -6.167620
    6.035088     1.717674    -6.132580     2.122028    -5.373503
    6.045113     1.737212    -5.465099     2.246912    -4.549096
    6.055138     1.786596    -4.786888     2.436091    -3.677280
    6.065163     1.870312    -4.087323     2.710268    -2.737671
    6.075188     1.995670    -3.354316     3.102383    -1.705635
    6.085213     2.173995    -2.573581     3.665737    -0.551764
    6.095238     2.422657    -1.727775     4.488903     0.756389
    6.105263     2.768559    -0.795542     5.723542     2.244601
    6.115288     3.254278     0.249321     7.635323     3.896110
     6.12531      3.94917      1.43753     10.68311      5.53208
     6.13534      4.96991      2.79965     15.54550      6.45017
     6.14536      6.51875      4.34662     22.51847      4.64086
     6.15539      8.95014      6.00272     28.84263     -2.89980
     6.16541     12.84744      7.39014     28.15540    -13.91553
     6.17544     18.86301      7.24772     21.28885    -20.49504
     6.18546     26.19875      2.73944     14.54409    -21.71370
     6.19549     29.56021     -7.52706      9.96463    -20.64779
     6.20551     24.89704    -16.99557      7.08773    -19.05073
     6.21554     17.53082    -20.47370      5.25822    -17.50393
     6.22556     11.89457    -20.20367      4.05200    -16.14742
     6.23559      8.28691    -18.75515      3.22489    -14.98791
     6.24561      6.01957    -17.16210      2.63682    -13.99858
     6.25564      4.55324    -15.71837      2.20519    -13.14873
     6.26566      3.56735    -14.47500      1.87952    -12.41163
     6.27569      2.87891    -13.41525      1.62789    -11.76570
     6.28571      2.38164    -12.50865      1.42943    -11.19398
     6.29574      2.01175    -11.72622      1.27008    -10.68321
     6.30576      1.72953    -11.04388      1.14011    -10.22295
     6.31579      1.50945    -10.44262      1.03263     -9.80498
    6.325814     1.334547    -9.907560     0.942676    -9.422762
    6.335839     1.193239    -9.426964     0.866570    -9.070963
    6.345865     1.077423    -8.991674     0.801564    -8.745316
    6.355890     0.981300    -8.594393     0.745563    -8.442289
    6.365915     0.900632    -8.229273     0.696950    -8.158974
    6.375940     0.832273    -7.891584     0.654464    -7.892927
    6.385965     0.773845    -7.577460     0.617103    -7.642100
    6.395990     0.723526    -7.283710     0.584070    -7.404752
    6.406015     0.679904    -7.007685     0.554721    -7.179403
    6.416040     0.641869    -6.747159     0.528532    -6.964772
    6.426065     0.608539    -6.500249     0.505072    -6.759758
    6.436090     0.579210    -6.265340     0.483987    -6.563384
    6.446115     0.553311    -6.041062     0.464981    -6.374821
    6.456141     0.530377    -5.826192     0.447806    -6.193304
    6.466166     0.510029    -5.619700     0.432255    -6.018185
    6.476190     0.491953    -5.420671     0.418151    -5.848873
    6.486216     0.475888    -5.228274     0.405344    -5.684832
    6.496241     0.461621    -5.041786     0.393708    -5.525587
    6.506266     0.448971    -4.860549     0.383133    -5.370711
    6.516291     0.437790    -4.683971     0.373526    -5.219803
    6.526316     0.427953    -4.511510     0.364806    -5.072504
    6.536341     0.419357    -4.342663     0.356906    -4.928484
    6.546366     0.411920    -4.176962     0.349765    -4.787430
    6.556391     0.405572    -4.013978     0.343333    -4.649061
    6.566416     0.400261    -3.853287     0.337566    -4.513100
    6.576441     0.395945    -3.694498     0.332429    -4.379296
    6.586466     0.392598    -3.537232     0.327890    -4.247413
    6.596491     0.390202    -3.381101     0.323923    -4.117210
    6.606516     0.388752    -3.225742     0.320509    -3.988471
    6.616541     0.388252    -3.070784     0.317630    -3.860981
    6.626566     0.388721    -2.915855     0.315274    -3.734537
    6.636591     0.390188    -2.760568     0.313434    -3.608924
    6.646616     0.392695    -2.604526     0.312104    -3.483944
    6.656641     0.396298    -2.447313     0.311284    -3.359396
    6.666667     0.401073    -2.288496     0.310977    -3.235078
    6.676692     0.407111    -2.127600     0.311191    -3.110789
    6.686717     0.414528    -1.964121     0.311935    -2.986316
    6.696742     0.423465    -1.797499     0.313224    -2.861451
    6.706767     0.434098    -1.627123     0.315079    -2.735975
    6.716792     0.446642    -1.452309     0.317522    -2.609659
    6.726818     0.461359    -1.272289     0.320583    -2.482268
    6.736842     0.478578    -1.086196     0.324295    -2.353556
    6.746867     0.498704    -0.893007     0.328701    -2.223251
    6.756892     0.522248    -0.691572     0.333846    -2.091074
    6.766918     0.549854    -0.480527     0.339789    -1.956727
    6.776942     0.582342    -0.258272     0.346591    -1.819891
     6.78697      0.62078     -0.02287      0.35433     -1.68020
    6.796992     0.666556     0.227967     0.363091    -1.537291
    6.807017     0.721523     0.497069     0.372977    -1.390734
    6.817043     0.788182     0.787894     0.384104    -1.240074
    6.827068     0.869980     1.104751     0.396610    -1.084805
    6.837093     0.971762     1.453045     0.410653    -0.924364
    6.847118     1.100513     1.839625     0.426422    -0.758124
    6.857143     1.266558     2.273197     0.444136    -0.585378
    6.867168     1.485636     2.764791     0.464056    -0.405334
    6.877193     1.782530     3.328072     0.486488    -0.217094
     6.88722      2.19767      3.97881      0.51180     -0.01963
    6.897243     2.799422     4.731270     0.540435     0.188221
    6.907269     3.706713     5.584305     0.572921     0.407812
    6.917294     5.126361     6.474339     0.609906     0.640707
    6.927318     7.381359     7.129313     0.652176     0.888698
     6.93734     10.72511      6.71395      0.70071      1.15396
     6.94737     14.24440      3.69449      0.75672      1.43898
     6.95739     14.83186     -1.66895      0.82173      1.74674
     6.96742     11.80451     -5.46470      0.89768      2.08082
    6.977444     8.319186    -6.336482     0.987038     2.445510
    6.987469     5.881005    -5.754757     1.093047     2.846063
    6.997494     4.377800    -4.764171     1.219964     3.288882
    7.007519     3.470120    -3.733979     1.373492     3.781921
    7.017544     2.926267    -2.756103     1.561405     4.335096
    7.027569     2.614612    -1.834953     1.794491     4.960901
    7.037594     2.464219    -0.950473     2.088020     5.675160
     7.04762      2.43965     -0.07644      2.46428      6.49830
    7.057644     2.528287     0.814605     2.956398     7.456276
    7.067669     2.735366     1.751483     3.615379     8.582187
    7.077694     3.084476     2.765398     4.522242     9.916817
     7.08772      3.62365      3.89076      5.81036     11.50608
     7.09774      4.43941      5.16362      7.70704     13.38648
     7.10777      5.68473      6.61150     10.60948     15.53192
     7.11779      7.63089      8.21550     15.20338     17.67630
     7.12782     10.74726      9.78355     22.50538     18.77632
     7.13785     15.71715     10.57015     32.97814     15.83992
     7.14787     22.76740      8.47976     42.54964      4.34691
     7.15790     28.88748      0.56790     41.66864    -12.44381
     7.16792     27.76654    -10.45136     31.43371    -22.64829
     7.17795     20.77810    -16.75887     21.31485    -24.76486
     7.18797     14.13697    -17.84139     14.44005    -23.40825
     7.19800      9.66800    -16.76823     10.12740    -21.23207
     7.20802      6.86542    -15.21105      7.39187    -19.11924
     7.21804      5.08376    -13.71505      5.59438    -17.28377
     7.22807      3.90984    -12.40822      4.36667    -15.73691
     7.23810      3.10656    -11.29397      3.49784    -14.43920
     7.24812      2.53770    -10.34463      2.86347    -13.34503
     7.25815      2.12280     -9.52937      2.38762    -12.41462
     7.26817      1.81267     -8.82139      2.02229    -11.61591
     7.27820      1.57620     -8.19908      1.73609    -10.92374
     7.28822      1.39306     -7.64533      1.50794    -10.31849
    7.298246     1.249641    -7.146613     1.323247    -9.784792
    7.308271     1.136589    -6.692168     1.171711    -9.310546
    7.318296     1.047397    -6.273301     1.045886    -8.886151
    7.328321     0.977488    -5.882859     0.940290    -8.503900
    7.338346     0.923651    -5.514849     0.850828    -8.157598
    7.348371     0.883676    -5.164007     0.774371    -7.842085
    7.358396     0.856151    -4.825740     0.708522    -7.553227
    7.368421     0.840311    -4.495761     0.651410    -7.287544
    7.378446     0.835995    -4.169958     0.601553    -7.042142
    7.388471     0.843649    -3.844195     0.557775    -6.814584
    7.398496     0.864403    -3.514137     0.519126    -6.602795
    7.408521     0.900239    -3.175034     0.484833    -6.405021
    7.418547     0.954275    -2.821471     0.454266    -6.219744
    7.428572     1.031252    -2.447068     0.426903    -6.045670
    7.438597     1.138325    -2.044097     0.402313    -5.881666
    7.448622     1.286415    -1.603025     0.380132    -5.726742
    7.458647     1.492538    -1.112051     0.360056    -5.580049
    7.468672     1.783946    -0.556888     0.341827    -5.440830
     7.47870      2.20572      0.07830      0.32523     -5.30842
    7.488722     2.834935     0.805846     0.310066    -5.182221
    7.498747     3.806452     1.616082     0.296185    -5.061719
    7.508772     5.352774     2.415754     0.283444    -4.946440
    7.518798     7.814797     2.842648     0.271723    -4.835963
     7.52882     11.32418      1.87029      0.26092     -4.72993
     7.53885     14.43919     -1.98960      0.25094     -4.62798
     7.54887     13.98987     -7.49683      0.24170     -4.52982
     7.55890     10.52648    -10.71573      0.23313     -4.43517
     7.56892      7.18015    -11.28692      0.22518     -4.34379
     7.57895      4.91820    -10.74782      0.21778     -4.25543
    7.588973     3.498224    -9.954948     0.210892    -4.169905
    7.598998     2.595007    -9.190055     0.204466    -4.087011
    7.609022     1.999341    -8.520341     0.198466    -4.006582
    7.619047     1.590789    -7.948298     0.192856    -3.928446
    7.629072     1.300333    -7.460465     0.187607    -3.852463
    7.639097     1.087207    -7.041557     0.182690    -3.778493
    7.649123     0.926487    -6.678303     0.178080    -3.706414
    7.659148     0.802391    -6.360009     0.173754    -3.636109
    7.669173     0.704597    -6.078273     0.169694    -3.567469
    7.679198     0.626146    -5.826530     0.165879    -3.500390
    7.689223     0.562228    -5.599623     0.162294    -3.434785
    7.699248     0.509432    -5.393486     0.158923    -3.370560
    7.709273     0.465293    -5.204875     0.155752    -3.307635
    7.719298     0.427993    -5.031180     0.152770    -3.245934
    7.729323     0.396170    -4.870282     0.149964    -3.185382
    7.739348     0.368785    -4.720442     0.147325    -3.125915
    7.749374     0.345038    -4.580227     0.144842    -3.067466
    7.759399     0.324303    -4.448437     0.142508    -3.009979
    7.769424     0.306083    -4.324067     0.140314    -2.953390
    7.779449     0.289984    -4.206264     0.138253    -2.897649
    7.789474     0.275687    -4.094301     0.136319    -2.842703
    7.799500     0.262931    -3.987556     0.134505    -2.788505
    7.809525     0.251502    -3.885490     0.132807    -2.735005
    7.819550     0.241226    -3.787634     0.131218    -2.682160
    7.829575     0.231953    -3.693581     0.129735    -2.629930
    7.839599     0.223563    -3.602978     0.128353    -2.578272
    7.849624     0.215950    -3.515492     0.127069    -2.527141
    7.859649     0.209025    -3.430849     0.125879    -2.476506
    7.869674     0.202716    -3.348799     0.124779    -2.426325
    7.879699     0.196956    -3.269118     0.123768    -2.376568
    7.889725     0.191691    -3.191602     0.122843    -2.327193
    7.899750     0.186873    -3.116069     0.122001    -2.278174
    7.909774     0.182460    -3.042358     0.121240    -2.229476
    7.919799     0.178417    -2.970308     0.120559    -2.181063
    7.929824     0.174712    -2.899786     0.119956    -2.132907
    7.939849     0.171318    -2.830664     0.119430    -2.084974
    7.949874     0.168210    -2.762827     0.118980    -2.037238
    7.959899     0.165367    -2.696168     0.118604    -1.989666
    7.969925     0.162771    -2.630582     0.118303    -1.942230
    7.979950     0.160406    -2.565977     0.118075    -1.894899
    7.989975     0.158256    -2.502266     0.117921    -1.847644
    8.000000     0.156310    -2.439366     0.117840    -1.800438
# 
# 01/03/2018 at 12:28 YAMBO @ anomaly [start]
# 01/03/2018 at 12:28                 [end]
#
# .-Input file : yambo.in
# | optics                         # [R OPT] Optics
# | bse                            # [R BSE] Bethe Salpeter Equation.
# | bsk                            # [R BSK] Bethe Salpeter Equation kernel
# | bss                            # [R BSS] Bethe Salpeter Equation solver
# | BoseTemp= 0.000000     eV      # Bosonic Temperature
# | FFTGvecs=  3473        RL      # [FFT] Plane-waves
# | X_Threads= 1                   # [OPENMP/X] Number of threads for response functions
# | DIP_Threads= 1                 # [OPENMP/X] Number of threads for dipoles
# | K_Threads= 1                   # [OPENMP/BSK] Number of threads for response functions
# | BSEmod= "retarded"             # [BSE] resonant/retarded/coupling
# | BSKmod= "ALDA"                 # [BSE] IP/Hartree/HF/ALDA/SEX/BSfxc
# | BSSmod= "d"                    # [BSS] (h)aydock/(d)iagonalization/(i)nversion/(t)ddft`
# | BSENGexx=  51          RL      # [BSK] Exchange components
# | % BEnRange
# |  4.000000 | 8.000000 | eV      # [BSS] Energy range
# | %
# | % BDmRange
# |   0.02500 |  0.02500 | eV      # [BSS] Damping range
# | %
# | BEnSteps=  400                 # [BSS] Energy steps
# | % BLongDir
# | 0.5774E-5 |0.5774E-5 |0.5774E-5 |        # [BSS] [cc] Electric Field
# | %
# | % BSEBands
# |   7 | 10 |                     # [BSK] Bands range
# | %
