#                                                           
# ooooo   oooo ..     ooo        ooo ooooooooo.    .oooo.   
#  `88.   .8" .88.    `88.       .88 `88"   `Y8b  dP"  `Yb  
#   `88. .8" .8"88.    888b     d"88  88     888 88      88 
#    `88.8" .8" `88.   8 Y88. .P  88  88oooo888" 88      88 
#     `88" .88ooo888.  8  `888"   88  88    `88b 88      88 
#      88 .8"     `88. 8    Y     88  88    .88P `8b    d8" 
#     o88o88o      888o8          88 o88bood8P"   `Ybod8P"  
#                                                           
#                                                           
#         Version 4.3.0 Revision 15185 Hash 3effa9d         
#                   MPI+SLK+OpenMP Build                    
#                 http://www.yambo-code.org                 
#
# Absorption @ Q(1) [q->0 direction] :0.5774E-5 0.5774E-5 0.5774E-5
#
#
# - Energies      are Teter 93(XC)
# - Wavefunctions are Teter 93(XC)
#
# - The Green`s function is Retarded -
# - Using the Length Gauge -
# - [r,Vnl] *is* included -
#
#   BSK|Identifier              :9791
#      |Dimension               :32
#      |Bands                   :7 - 10
#      |Exchange           [res]: yes
#      |Correlation        [res]: no
#      |Kernel`s coupling       : no
#      |Exchange           [cpl]: no
#      |Correlation        [cpl]: no
#      |W interaction is bare   : no
#      |ALDA kernel in R-space  : yes
#      |RL vectors    [exchange]:51
#      |E/h energy range    [ev]:-1.000000 - -1.000000
#      |Coupling range     [o/o]: 100.0000 -  100.0000
#
#    E/ev[1]      EPS-Im[2]    EPS-Re[3]    EPSo-Im[4]   EPSo-Re[5]
#
     4.00000      0.16470     11.97920      0.17436     12.25055
     4.01003      0.16716     12.04569      0.17703     12.32095
     4.02005      0.16967     12.11318      0.17977     12.39243
     4.03008      0.17225     12.18169      0.18257     12.46503
     4.04010      0.17488     12.25123      0.18543     12.53875
     4.05013      0.17757     12.32184      0.18836     12.61364
     4.06015      0.18033     12.39355      0.19135     12.68971
     4.07018      0.18316     12.46636      0.19442     12.76700
     4.08020      0.18606     12.54032      0.19757     12.84553
     4.09023      0.18905     12.61543      0.20078     12.92533
     4.10025      0.19212     12.69172      0.20408     13.00644
     4.11028      0.19527     12.76918      0.20746     13.08888
     4.12030      0.19845     12.84783      0.21092     13.17269
     4.13033      0.20162     12.92780      0.21446     13.25790
     4.14035      0.20487     13.00914      0.21810     13.34455
     4.15038      0.20821     13.09185      0.22183     13.43268
     4.16040      0.21166     13.17594      0.22565     13.52232
     4.17043      0.21521     13.26144      0.22957     13.61350
     4.18045      0.21886     13.34839      0.23360     13.70628
     4.19048      0.22260     13.43681      0.23773     13.80068
     4.20050      0.22644     13.52675      0.24197     13.89677
     4.21053      0.23038     13.61826      0.24632     13.99457
     4.22055      0.23443     13.71136      0.25080     14.09414
     4.23058      0.23858     13.80611      0.25539     14.19553
     4.24060      0.24285     13.90254      0.26011     14.29877
     4.25063      0.24723     14.00069      0.26496     14.40394
     4.26065      0.25173     14.10063      0.26995     14.51106
     4.27068      0.25635     14.20239      0.27508     14.62022
     4.28070      0.26111     14.30603      0.28036     14.73146
     4.29073      0.26600     14.41160      0.28579     14.84484
     4.30075      0.27102     14.51915      0.29138     14.96042
     4.31078      0.27619     14.62874      0.29713     15.07827
     4.32080      0.28151     14.74043      0.30306     15.19846
     4.33083      0.28698     14.85428      0.30916     15.32105
     4.34085      0.29261     14.97034      0.31545     15.44612
     4.35088      0.29842     15.08869      0.32194     15.57375
     4.36090      0.30439     15.20940      0.32863     15.70401
     4.37093      0.31055     15.33254      0.33552     15.83698
     4.38095      0.31690     15.45818      0.34264     15.97276
     4.39098      0.32344     15.58640      0.34999     16.11143
     4.40100      0.33019     15.71727      0.35757     16.25309
     4.41103      0.33716     15.85088      0.36541     16.39783
     4.42105      0.34434     15.98732      0.37351     16.54575
     4.43108      0.35177     16.12669      0.38188     16.69696
     4.44110      0.35943     16.26907      0.39054     16.85158
     4.45113      0.36735     16.41456      0.39949     17.00972
     4.46115      0.37554     16.56328      0.40876     17.17150
     4.47118      0.38400     16.71532      0.41836     17.33704
     4.48120      0.39276     16.87081      0.42830     17.50649
     4.49123      0.40182     17.02985      0.43860     17.67999
     4.50125      0.41120     17.19257      0.44928     17.85767
     4.51128      0.42092     17.35912      0.46035     18.03970
     4.52130      0.43098     17.52962      0.47185     18.22623
     4.53133      0.44142     17.70421      0.48378     18.41745
     4.54135      0.45225     17.88305      0.49618     18.61353
     4.55138      0.46348     18.06629      0.50906     18.81464
     4.56140      0.47514     18.25410      0.52246     19.02100
     4.57143      0.48725     18.44666      0.53640     19.23283
     4.58145      0.49983     18.64414      0.55090     19.45032
     4.59148      0.51292     18.84676      0.56601     19.67373
     4.60150      0.52653     19.05470      0.58176     19.90329
     4.61153      0.54070     19.26819      0.59818     20.13928
     4.62155      0.55546     19.48746      0.61532     20.38195
     4.63158      0.57084     19.71273      0.63321     20.63161
     4.64160      0.58688     19.94426      0.65190     20.88855
     4.65163      0.60361     20.18233      0.67145     21.15313
     4.66165      0.62108     20.42723      0.69189     21.42567
     4.67168      0.63933     20.67925      0.71330     21.70656
     4.68170      0.65841     20.93871      0.73573     21.99618
     4.69173      0.67838     21.20595      0.75925     22.29495
     4.70175      0.69928     21.48133      0.78394     22.60332
     4.71178      0.72118     21.76524      0.80987     22.92176
     4.72180      0.74415     22.05808      0.83712     23.25080
     4.73183      0.76825     22.36030      0.86580     23.59096
     4.74185      0.79357     22.67237      0.89600     23.94283
     4.75188      0.82019     22.99476      0.92784     24.30705
     4.76190      0.84819     23.32803      0.96143     24.68427
     4.77193      0.87769     23.67273      0.99691     25.07523
     4.78196      0.90879     24.02949      1.03443     25.48069
     4.79198      0.94160     24.39893      1.07415     25.90146
     4.80200      0.97627     24.78181      1.11624     26.33850
     4.81203      1.01294     25.17885      1.16091     26.79275
     4.82206      1.05177     25.59089      1.20837     27.26528
     4.83208      1.09292     26.01880      1.25885     27.75721
     4.84211      1.13660     26.46354      1.31263     28.26982
     4.85213      1.18302     26.92613      1.37001     28.80441
     4.86216      1.23243     27.40774      1.43131     29.36251
     4.87218      1.28508     27.90956      1.49691     29.94572
     4.88221      1.34127     28.43294      1.56723     30.55580
     4.89223      1.40133     28.97931      1.64274     31.19468
     4.90226      1.46565     29.55029      1.72396     31.86449
     4.91228      1.53463     30.14760      1.81150     32.56758
     4.92231      1.60874     30.77316      1.90604     33.30655
     4.93233      1.68853     31.42909      2.00837     34.08426
     4.94236      1.77460     32.11768      2.11936     34.90387
     4.95238      1.86763     32.84156      2.24005     35.76902
     4.96241      1.96843     33.60358      2.37162     36.68364
     4.97243      2.07790     34.40691      2.51543     37.65216
     4.98246      2.19709     35.25508      2.67308     38.67965
     4.99248      2.32720     36.15212      2.84643     39.77172
     5.00251      2.46965     37.10242      3.03766     40.93476
     5.01253      2.62610     38.11112      3.24937     42.17619
     5.02256      2.79847     39.18391      3.48464     43.50427
     5.03258      2.98907     40.32729      3.74715     44.92862
     5.04261      3.20063     41.54868      4.04133     46.46027
     5.05263      3.43640     42.85661      4.37259     48.11209
     5.06266      3.70035     44.26091      4.74750     49.89903
     5.07268      3.99725     45.77299      5.17423     51.83869
     5.08271      4.33299     47.40617      5.66291     53.95181
     5.09273      4.71482     49.17596      6.22628     56.26301
     5.10276      5.15185     51.10096      6.88066     58.80203
     5.11278      5.65555     53.20306      7.64698     61.60455
     5.12281      6.24059     55.50858      8.55259     64.71404
     5.13283      6.92597     58.04932      9.63379     68.18395
     5.14286      7.73669     60.86408     10.93949     72.08054
     5.15288      8.70611     64.00038     12.53676     76.48645
     5.16291      9.87978     67.51770     14.51984     81.50662
     5.17293     11.32086     71.48997     17.02362     87.27383
     5.18296     13.11929     76.01060     20.24670     93.95787
      5.1930      15.4064      81.1978      24.4899     101.7752
      5.2030      18.3798      87.2006      30.2236     110.9967
      5.2130      22.3469      94.2024      38.2098     121.9427
      5.2231      27.8024     102.4128      49.7275     134.9280
      5.2331      35.5668     112.0140      66.9912     150.0394
      5.2431      47.0111     122.9608      93.8685     166.3682
      5.2531      64.2596     134.3785     136.6568     179.5781
      5.2632      89.5845     143.3891     201.9341     175.4652
      5.2732     123.2760     145.4626     278.9461     123.4911
      5.2832     166.0144     135.9797     309.2505      13.5382
      5.2932     215.3404      98.8120     256.9778     -81.2224
      5.3033     235.3938      23.0624     181.7120    -112.7940
      5.3133     197.9692     -43.6212     126.1356    -107.1257
      5.3233     143.1788     -64.8451      91.8532     -89.7729
      5.3333     102.9240     -58.0799      71.8706     -70.5859
     5.34336     79.06204    -42.09954     61.14816    -52.19754
     5.35338     66.78099    -24.22271     57.17588    -34.93834
     5.36341     62.84305     -6.37498     59.35735    -18.68892
     5.37343     66.28765     11.09894     68.76978     -3.94441
     5.38346     78.27043     27.59813     87.97569      6.37771
      5.3935     101.9943      40.1224     118.1691       3.2260
      5.4035     140.3771      38.8174     146.7103     -27.6136
      5.4135     182.8219       4.6276     143.1297     -76.6189
      5.4236     190.6108     -61.3453     109.6323    -105.9158
      5.4336     151.8928    -110.4872      76.2579    -109.7544
      5.4436     105.8452    -122.9546      53.3373    -102.6674
      5.4536      72.8408    -116.7999      38.7665     -93.1767
      5.4637      51.8383    -105.6888      29.3752     -84.1118
     5.47368     38.46297    -94.55697     23.09054    -76.13717
     5.48371     29.65001    -84.68567     18.71314    -69.26401
     5.49373     23.60892    -76.21124     15.55196    -63.34166
     5.50376     19.31290    -68.96767     13.19720    -58.20286
     5.51378     16.15889    -62.74094     11.39701    -53.70184
     5.52381     13.78010    -57.33858      9.99089    -49.72003
     5.53383     11.94530    -52.60279      8.87314    -46.16299
     5.54386     10.50378    -48.40821      7.97207    -42.95572
     5.55388      9.35413    -44.65517      7.23772    -40.03778
     5.56391      8.42656    -41.26487      6.63463    -37.36066
     5.57394      7.67182    -38.17394      6.13716    -34.88441
     5.58396      7.05452    -35.33084      5.72650    -32.57576
     5.59398      6.54892    -32.69312      5.38884    -30.40661
     5.60401      6.13605    -30.22492      5.11399    -28.35248
     5.61404      5.80206    -27.89588      4.89464    -26.39198
     5.62406      5.53685    -25.67940      4.72574    -24.50576
     5.63409      5.33334    -23.55176      4.60420    -22.67583
     5.64411      5.18693    -21.49120      4.52868    -20.88502
     5.65414      5.09520    -19.47719      4.49959    -19.11638
     5.66416      5.05782    -17.48973      4.51919    -17.35262
     5.67419      5.07656    -15.50867      4.59189    -15.57548
     5.68421      5.15562    -13.51307      4.72475    -13.76504
     5.69424      5.30199    -11.48004      4.92832    -11.89866
    5.704261     5.526332    -9.384363     5.217898    -9.950191
    5.714286     5.844120    -7.196893     5.615554    -7.888399
    5.724311     6.277612    -4.883224     6.153342    -5.675175
    5.734335     6.858793    -2.401820     6.878463    -3.263300
    5.744361     7.634291     0.298869     7.862068    -0.593230
    5.754386     8.673102     3.283016     9.214014     2.409303
     5.76441     10.07993      6.63154     11.10946      5.83511
     5.77444     12.01820     10.44549     13.83728      9.78567
     5.78446     14.75138     14.84595     17.89034     14.34174
     5.79449     18.71928     19.95946     24.13031     19.44737
     5.80451     24.67999     25.85398     34.04475     24.52352
     5.81454     33.96214     32.31305     49.83586     27.29993
     5.82456     48.79835     38.10373     72.48377     21.27395
     5.83459     72.01363     38.90449     93.09510     -3.32093
      5.8446     102.2382      24.0511      91.0075     -39.2814
      5.8546     120.9455     -15.4607      68.7751     -60.9100
      5.8647     106.5727     -57.7918      46.8722     -65.0901
     5.87469     76.25105    -76.34977     31.99596    -61.80936
     5.88471     51.51427    -77.18049     22.65577    -56.78347
     5.89474     35.46399    -71.87971     16.72188    -51.91010
     5.90476     25.39919    -65.56123     12.81498    -47.64764
     5.91479     18.93227    -59.75218     10.14077    -44.01899
     5.92481     14.61517    -54.75846      8.24369    -40.93749
     5.93484     11.62067    -50.53576      6.85519    -38.30360
     5.94486      9.47054    -46.96188      5.81136    -36.03043
     5.95489      7.87944    -43.91515      5.00863    -34.04781
     5.96491      6.67094    -41.29348      4.37943    -32.30045
     5.97494      5.73211    -39.01553      3.87841    -30.74492
     5.98496      4.98839    -37.01765      3.47440    -29.34695
     5.99499      4.38911    -35.25015      3.14560    -28.07926
     6.00501      3.89890    -33.67380      2.87651    -26.91959
     6.01504      3.49258    -32.25773      2.65616    -25.84976
     6.02506      3.15183    -30.97725      2.47688    -24.85443
     6.03509      2.86310    -29.81248      2.33360    -23.92039
     6.04511      2.61613    -28.74709      2.22351    -23.03572
     6.05514      2.40314    -27.76783      2.14607    -22.18948
     6.06516      2.21809    -26.86364      2.10332    -21.37104
     6.07519      2.05628    -26.02530      2.10080    -20.56964
     6.08521      1.91402    -25.24504      2.14933    -19.77413
     6.09524      1.78838    -24.51622      2.26846    -18.97322
     6.10526      1.67708    -23.83316      2.49300    -18.15771
     6.11529      1.57839    -23.19094      2.88512    -17.32891
     6.12531      1.49107    -22.58526      3.55306    -16.52704
     6.13534      1.41449    -22.01238      4.65748    -15.91707
     6.14536      1.34872    -21.46916      6.26815    -15.97505
     6.15539      1.29495    -20.95328      7.72839    -17.41371
     6.16541      1.25590    -20.46464      7.52484    -19.69512
     6.17544      1.23483    -20.00877      5.85496    -20.93683
     6.18546      1.22632    -19.60093      4.21677    -20.91787
     6.19549      1.19788    -19.24783      3.09590    -20.36872
     6.20551      1.12460    -18.90837      2.38208    -19.70543
     6.21554      1.03825    -18.54983      1.91929    -19.06544
     6.22556      0.96531    -18.18456      1.60651    -18.48131
     6.23559      0.90728    -17.82699      1.38551    -17.95398
     6.24561      0.85976    -17.48239      1.22283    -17.47645
     6.25564      0.81926    -17.15163      1.09870    -17.04087
     6.26566      0.78366    -16.83422      1.00101    -16.64037
     6.27569      0.75166    -16.52930      0.92206    -16.26937
     6.28571      0.72248    -16.23600      0.85680    -15.92338
     6.29574      0.69559    -15.95355      0.80179    -15.59889
     6.30576      0.67063    -15.68119      0.75466    -15.29302
     6.31579      0.64733    -15.41830      0.71369    -15.00350
     6.32581      0.62549    -15.16431      0.67765    -14.72846
     6.33584      0.60495    -14.91868      0.64561    -14.46634
     6.34586      0.58558    -14.68094      0.61686    -14.21585
     6.35589      0.56727    -14.45067      0.59085    -13.97592
     6.36591      0.54994    -14.22747      0.56717    -13.74561
     6.37594      0.53349    -14.01099      0.54547    -13.52413
     6.38596      0.51786    -13.80087      0.52549    -13.31079
     6.39599      0.50300    -13.59682      0.50699    -13.10499
     6.40602      0.48883    -13.39855      0.48980    -12.90621
     6.41604      0.47532    -13.20578      0.47376    -12.71396
     6.42607      0.46242    -13.01827      0.45875    -12.52783
     6.43609      0.45009    -12.83578      0.44466    -12.34745
     6.44612      0.43830    -12.65812      0.43139    -12.17249
     6.45614      0.42701    -12.48504      0.41888    -12.00263
     6.46617      0.41618    -12.31637      0.40704    -11.83759
     6.47619      0.40580    -12.15194      0.39582    -11.67714
     6.48622      0.39584    -11.99156      0.38516    -11.52102
     6.49624      0.38626    -11.83508      0.37503    -11.36904
     6.50627      0.37706    -11.68234      0.36538    -11.22098
     6.51629      0.36821    -11.53321      0.35617    -11.07668
     6.52632      0.35969    -11.38754      0.34738    -10.93596
     6.53634      0.35148    -11.24522      0.33896    -10.79867
     6.54637      0.34357    -11.10611      0.33091    -10.66466
     6.55639      0.33595    -10.97010      0.32318    -10.53379
     6.56642      0.32859    -10.83708      0.31577    -10.40594
     6.57644      0.32149    -10.70696      0.30865    -10.28099
     6.58647      0.31463    -10.57962      0.30181    -10.15883
     6.59649      0.30800    -10.45498      0.29522    -10.03934
     6.60652      0.30160    -10.33294      0.28888     -9.92243
     6.61654      0.29540    -10.21342      0.28276     -9.80801
     6.62657      0.28940    -10.09634      0.27687     -9.69599
    6.636591     0.283596    -9.981613     0.271179    -9.586277
    6.646616     0.277973    -9.869172     0.265684    -9.478802
    6.656641     0.272525    -9.758944     0.260374    -9.373483
    6.666667     0.267244    -9.650859     0.255239    -9.270248
    6.676692     0.262124    -9.544855     0.250272    -9.169033
    6.686717     0.257157    -9.440867     0.245464    -9.069771
    6.696742     0.252337    -9.338837     0.240807    -8.972402
    6.706767     0.247658    -9.238708     0.236294    -8.876864
    6.716792     0.243115    -9.140420     0.231920    -8.783101
    6.726818     0.238702    -9.043925     0.227677    -8.691063
    6.736842     0.234413    -8.949176     0.223561    -8.600699
    6.746867     0.230244    -8.856112     0.219564    -8.511951
    6.756892     0.226191    -8.764695     0.215684    -8.424783
    6.766918     0.222248    -8.674872     0.211913    -8.339142
    6.776942     0.218413    -8.586617     0.208250    -8.254992
    6.786967     0.214680    -8.499867     0.204687    -8.172284
    6.796992     0.211046    -8.414590     0.201223    -8.090981
    6.807017     0.207507    -8.330752     0.197852    -8.011045
    6.817043     0.204060    -8.248310     0.194572    -7.932440
    6.827068     0.200702    -8.167229     0.191378    -7.855128
    6.837093     0.197429    -8.087475     0.188268    -7.779080
    6.847118     0.194239    -8.009016     0.185238    -7.704259
    6.857143     0.191128    -7.931818     0.182286    -7.630635
    6.867168     0.188095    -7.855846     0.179408    -7.558180
    6.877193     0.185136    -7.781075     0.176603    -7.486859
    6.887218     0.182248    -7.707476     0.173867    -7.416648
    6.897243     0.179431    -7.635018     0.171197    -7.347519
    6.907269     0.176680    -7.563674     0.168593    -7.279447
    6.917294     0.173994    -7.493419     0.166051    -7.212401
    6.927318     0.171372    -7.424231     0.163570    -7.146368
    6.937343     0.168810    -7.356075     0.161147    -7.081312
    6.947368     0.166307    -7.288936     0.158781    -7.017213
    6.957394     0.163862    -7.222782     0.156469    -6.954051
    6.967419     0.161472    -7.157600     0.154210    -6.891804
    6.977444     0.159135    -7.093363     0.152003    -6.830451
    6.987469     0.156851    -7.030051     0.149845    -6.769973
    6.997494     0.154617    -6.967645     0.147735    -6.710348
    7.007519     0.152432    -6.906122     0.145672    -6.651559
    7.017544     0.150295    -6.845467     0.143654    -6.593585
    7.027569     0.148205    -6.785656     0.141680    -6.536413
    7.037594     0.146159    -6.726680     0.139748    -6.480027
    7.047619     0.144157    -6.668507     0.137857    -6.424401
    7.057644     0.142198    -6.611128     0.136007    -6.369527
    7.067669     0.140281    -6.554525     0.134195    -6.315382
    7.077694     0.138404    -6.498684     0.132422    -6.261956
    7.087719     0.136568    -6.443587     0.130685    -6.209235
    7.097744     0.134772    -6.389217     0.128983    -6.157200
    7.107769     0.133017    -6.335562     0.127316    -6.105842
    7.117795     0.131304    -6.282606     0.125683    -6.055145
    7.127820     0.129637    -6.230337     0.124083    -6.005094
    7.137845     0.128022    -6.178747     0.122515    -5.955677
    7.147870     0.126459    -6.127845     0.120977    -5.906884
    7.157895     0.124920    -6.077648     0.119470    -5.858698
    7.167920     0.123342    -6.028114     0.117992    -5.811112
    7.177945     0.121737    -5.979156     0.116543    -5.764112
    7.187970     0.120165    -5.930758     0.115122    -5.717686
    7.197996     0.118642    -5.882937     0.113728    -5.671824
    7.208021     0.117164    -5.835698     0.112361    -5.626514
    7.218045     0.115723    -5.789039     0.111019    -5.581753
    7.228070     0.114315    -5.742944     0.109702    -5.537518
    7.238095     0.112936    -5.697403     0.108410    -5.493807
    7.248120     0.111585    -5.652410     0.107142    -5.450611
    7.258145     0.110260    -5.607953     0.105897    -5.407914
    7.268170     0.108960    -5.564019     0.104675    -5.365712
    7.278196     0.107684    -5.520602     0.103476    -5.323998
    7.288221     0.106432    -5.477691     0.102298    -5.282760
    7.298246     0.105203    -5.435277     0.101141    -5.241986
    7.308271     0.103996    -5.393353     0.100005    -5.201675
     7.31830      0.10281     -5.35190      0.09889     -5.16181
     7.32832      0.10165     -5.31093      0.09779     -5.12239
     7.33835      0.10050     -5.27042      0.09672     -5.08342
     7.34837      0.09938     -5.23036      0.09566     -5.04486
     7.35840      0.09827     -5.19075      0.09462     -5.00672
     7.36842      0.09719     -5.15157      0.09360     -4.96900
     7.37845      0.09612     -5.11283      0.09259     -4.93169
     7.38847      0.09507     -5.07451      0.09161     -4.89477
     7.39850      0.09404     -5.03660      0.09064     -4.85824
     7.40852      0.09303     -4.99911      0.08968     -4.82210
     7.41855      0.09204     -4.96202      0.08875     -4.78634
     7.42857      0.09106     -4.92532      0.08782     -4.75095
     7.43860      0.09009     -4.88902      0.08692     -4.71593
     7.44862      0.08915     -4.85309      0.08603     -4.68127
     7.45865      0.08822     -4.81754      0.08515     -4.64696
     7.46867      0.08730     -4.78236      0.08429     -4.61300
     7.47870      0.08640     -4.74755      0.08344     -4.57938
     7.48872      0.08551     -4.71309      0.08261     -4.54610
     7.49875      0.08464     -4.67899      0.08179     -4.51315
     7.50877      0.08379     -4.64523      0.08098     -4.48052
     7.51880      0.08294     -4.61181      0.08019     -4.44822
     7.52882      0.08211     -4.57873      0.07941     -4.41623
     7.53885      0.08130     -4.54598      0.07864     -4.38455
     7.54887      0.08049     -4.51355      0.07789     -4.35317
     7.55890      0.07970     -4.48144      0.07715     -4.32210
     7.56892      0.07892     -4.44965      0.07642     -4.29132
     7.57895      0.07816     -4.41816      0.07570     -4.26083
     7.58897      0.07740     -4.38698      0.07499     -4.23063
     7.59900      0.07666     -4.35610      0.07429     -4.20071
     7.60902      0.07593     -4.32552      0.07361     -4.17106
     7.61905      0.07521     -4.29522      0.07294     -4.14169
     7.62907      0.07451     -4.26522      0.07227     -4.11258
     7.63910      0.07381     -4.23549      0.07162     -4.08374
     7.64912      0.07312     -4.20604      0.07098     -4.05516
     7.65915      0.07245     -4.17686      0.07035     -4.02683
     7.66917      0.07178     -4.14795      0.06973     -3.99875
     7.67920      0.07113     -4.11930      0.06911     -3.97093
     7.68922      0.07049     -4.09092      0.06851     -3.94334
     7.69925      0.06985     -4.06279      0.06792     -3.91599
     7.70927      0.06923     -4.03491      0.06734     -3.88888
     7.71930      0.06861     -4.00728      0.06676     -3.86200
     7.72932      0.06801     -3.97990      0.06620     -3.83535
     7.73935      0.06741     -3.95275      0.06565     -3.80892
     7.74937      0.06682     -3.92585      0.06510     -3.78271
     7.75940      0.06625     -3.89917      0.06456     -3.75673
     7.76942      0.06568     -3.87273      0.06403     -3.73095
     7.77945      0.06512     -3.84651      0.06352     -3.70538
     7.78947      0.06457     -3.82052      0.06300     -3.68002
     7.79950      0.06402     -3.79474      0.06250     -3.65487
     7.80952      0.06349     -3.76918      0.06201     -3.62991
     7.81955      0.06296     -3.74384      0.06152     -3.60515
     7.82957      0.06245     -3.71870      0.06105     -3.58058
     7.83960      0.06194     -3.69377      0.06058     -3.55620
     7.84962      0.06143     -3.66904      0.06011     -3.53201
     7.85965      0.06094     -3.64451      0.05966     -3.50800
     7.86967      0.06045     -3.62018      0.05922     -3.48417
     7.87970      0.05998     -3.59604      0.05878     -3.46052
     7.88972      0.05951     -3.57209      0.05835     -3.43704
     7.89975      0.05904     -3.54833      0.05793     -3.41374
     7.90977      0.05859     -3.52475      0.05752     -3.39060
     7.91980      0.05814     -3.50135      0.05711     -3.36762
     7.92982      0.05770     -3.47813      0.05671     -3.34481
     7.93985      0.05727     -3.45508      0.05632     -3.32215
     7.94987      0.05684     -3.43221      0.05594     -3.29965
     7.95990      0.05643     -3.40951      0.05556     -3.27730
     7.96992      0.05602     -3.38697      0.05520     -3.25510
     7.97995      0.05561     -3.36459      0.05484     -3.23304
     7.98997      0.05522     -3.34238      0.05449     -3.21113
     8.00000      0.05483     -3.32032      0.05414     -3.18936
# 
# 01/03/2018 at 12:28 YAMBO @ anomaly [start]
# 01/03/2018 at 12:28                 [end]
#
# .-Input file : yambo.in
# | optics                         # [R OPT] Optics
# | bse                            # [R BSE] Bethe Salpeter Equation.
# | bsk                            # [R BSK] Bethe Salpeter Equation kernel
# | bss                            # [R BSS] Bethe Salpeter Equation solver
# | BoseTemp= 0.000000     eV      # Bosonic Temperature
# | FFTGvecs=  3473        RL      # [FFT] Plane-waves
# | X_Threads= 1                   # [OPENMP/X] Number of threads for response functions
# | DIP_Threads= 1                 # [OPENMP/X] Number of threads for dipoles
# | K_Threads= 1                   # [OPENMP/BSK] Number of threads for response functions
# | BSEmod= "retarded"             # [BSE] resonant/retarded/coupling
# | BSKmod= "ALDA"                 # [BSE] IP/Hartree/HF/ALDA/SEX/BSfxc
# | BSSmod= "d"                    # [BSS] (h)aydock/(d)iagonalization/(i)nversion/(t)ddft`
# | BSENGexx=  51          RL      # [BSK] Exchange components
# | % BEnRange
# |  4.000000 | 8.000000 | eV      # [BSS] Energy range
# | %
# | % BDmRange
# |   0.02500 |  0.02500 | eV      # [BSS] Damping range
# | %
# | BEnSteps=  400                 # [BSS] Energy steps
# | % BLongDir
# | 0.5774E-5 |0.5774E-5 |0.5774E-5 |        # [BSS] [cc] Electric Field
# | %
# | % BSEBands
# |   7 | 10 |                     # [BSK] Bands range
# | %
