#  __      __   ______   __       __  _______    ______               
# |  \    /  \ /      \ |  \     /  \|       \  /      \              
#  \$$\  /  $$|  $$$$$$\| $$\   /  $$| $$$$$$$\|  $$$$$$\             
#   \$$\/  $$ | $$__| $$| $$$\ /  $$$| $$__/ $$| $$  | $$             
#    \$$  $$  | $$    $$| $$$$\  $$$$| $$    $$| $$  | $$             
#     \$$$$   | $$$$$$$$| $$\$$ $$ $$| $$$$$$$\| $$  | $$             
#     | $$    | $$  | $$| $$ \$$$| $$| $$__/ $$| $$__/ $$             
#     | $$    | $$  | $$| $$  \$ | $$| $$    $$ \$$    $$             
#      \$$     \$$   \$$ \$$      \$$ \$$$$$$$   \$$$$$$              
#                                                                     
# Version 5.2.0 Revision 22885 Hash (prev commit) 41fc9d87d4          
#                Branch is phys-dichroism                             
#         MPI+OpenMP+SLK+SLEPC+HDF5_MPI_IO Build                      
#                http://www.yambo-code.org                            
#
# Electron Energy Loss @ Q(1):  0.999999975E-5   0.00000000      0.00000000    [q->0 direction]
#
# [GEN] GF Energies                               : Teter 93(XC)
# [GEN] Green`s Function                          : Retarded
#
# [GEN] Gauge                                     : Length
# [GEN] [r,Vnl] included                          : yes
#
# DIP band range                                  :   1  10
# DIP band range limits                           :  1  2
# DIP e/h energy range                            :  -1.00000000     -1.00000000    [eV]
# RL vectors in the sum                           :   8385
# [r,Vnl] included                                : yes
# Bands ordered                                   : yes
# Direct v evaluation                             : no
# Approach used                                   : G-space v
# Dipoles computed                                : R V P
# Wavefunctions                                   : Teter 93(XC)
#
#
# [K] Identifier                                  :   9816
# [K] Dimension                                   :   9
# [K] Bands                                       :   1  10
# [K] Exchange res                                : yes
# [K] Correlation res                             : no
# [K] Kernel`s coupling                           : yes
# [K] Exchange cpl                                : yes
# [K] Correlation cpl                             : no
# [K] W interaction is bare                       : no
# [K] ALDA kernel in R-space                      : yes
# [K] RL vectors exchange                         :   4945
# [K] E/h energy range                            :  -1.00000000     -1.00000000    [eV]
# [K] Coupling range                              :   100.000000      100.000000    [o/o]
# [X] Response Kind                               : BAR
#
#
#    E[1] [eV]          Im(eel)            Re(eel)            Im(eel_o)          Re(eel_o)
#
        0.000000           0.40353E-09       -0.986120          -0.000000          -0.985025
        0.020020           0.283427E-6       -0.986120           0.327712E-6       -0.985025
        0.040040           0.566457E-6       -0.986119           0.655430E-6       -0.985025
        0.060060           0.849507E-6       -0.986119           0.983165E-6       -0.985025
        0.080080           0.113257E-5       -0.986119           0.131094E-5       -0.985025
        0.100100           0.141568E-5       -0.986119           0.163875E-5       -0.985025
        0.120120           0.169880E-5       -0.986118           0.196658E-5       -0.985024
        0.140140           0.198199E-5       -0.986118           0.229449E-5       -0.985024
        0.160160           0.226520E-5       -0.986118           0.262245E-5       -0.985023
        0.180180           0.254849E-5       -0.986117           0.295047E-5       -0.985023
        0.200200           0.283183E-5       -0.986117           0.327857E-5       -0.985022
        0.220220           0.311525E-5       -0.986116           0.360677E-5       -0.985021
        0.240240           0.339874E-5       -0.986115           0.393506E-5       -0.985021
        0.260260           0.368233E-5       -0.986115           0.426347E-5       -0.985020
        0.280280           0.396599E-5       -0.986114           0.459197E-5       -0.985019
        0.300300           0.424977E-5       -0.986113           0.492061E-5       -0.985018
        0.320320           0.453364E-5       -0.986112           0.524938E-5       -0.985017
        0.340340           0.481763E-5       -0.986111           0.557829E-5       -0.985016
        0.360360           0.510175E-5       -0.986110           0.590735E-5       -0.985015
        0.380380           0.538599E-5       -0.986109           0.623655E-5       -0.985014
        0.400400           0.567037E-5       -0.986108           0.656594E-5       -0.985012
        0.420420           0.595489E-5       -0.986107           0.689550E-5       -0.985011
        0.440440           0.623955E-5       -0.986106           0.722524E-5       -0.985009
        0.460460           0.652438E-5       -0.986104           0.755518E-5       -0.985008
        0.480480           0.680938E-5       -0.986103           0.788532E-5       -0.985007
        0.500500           0.709453E-5       -0.986102           0.821566E-5       -0.985005
        0.520521           0.737988E-5       -0.986100           0.854624E-5       -0.985003
        0.540541           0.766540E-5       -0.986099           0.887705E-5       -0.985001
        0.560561           0.795112E-5       -0.986097           0.920808E-5       -0.985000
        0.580581           0.823704E-5       -0.986096           0.953937E-5       -0.984998
        0.600601           0.852317E-5       -0.986094           0.987092E-5       -0.984996
        0.620621           0.880951E-5       -0.986092           0.102027E-4       -0.984994
        0.640641           0.909607E-5       -0.986090           0.105348E-4       -0.984992
        0.660661           0.938287E-5       -0.986089           0.108672E-4       -0.984990
        0.680681           0.966991E-5       -0.986087           0.111998E-4       -0.984987
        0.700701           0.995718E-5       -0.986085           0.115328E-4       -0.984985
        0.720721           0.102447E-4       -0.986083           0.118661E-4       -0.984983
        0.740741           0.105325E-4       -0.986081           0.121997E-4       -0.984980
        0.760761           0.108205E-4       -0.986078           0.125336E-4       -0.984978
        0.780781           0.111089E-4       -0.986076           0.128679E-4       -0.984975
        0.800801           0.113975E-4       -0.986074           0.132025E-4       -0.984973
        0.820821           0.116864E-4       -0.986072           0.135374E-4       -0.984970
        0.840841           0.119756E-4       -0.986069           0.138728E-4       -0.984967
        0.860861           0.122651E-4       -0.986067           0.142085E-4       -0.984965
        0.880881           0.125549E-4       -0.986064           0.145446E-4       -0.984962
        0.900901           0.128450E-4       -0.986062           0.148811E-4       -0.984959
        0.920921           0.131354E-4       -0.986059           0.152180E-4       -0.984956
        0.940941           0.134262E-4       -0.986057           0.155553E-4       -0.984953
        0.960961           0.137174E-4       -0.986054           0.158930E-4       -0.984949
        0.980981           0.140088E-4       -0.986051           0.162312E-4       -0.984946
        1.001001           0.143007E-4       -0.986048           0.165698E-4       -0.984943
        1.021021           0.145929E-4       -0.986045           0.169088E-4       -0.984940
        1.041041           0.148854E-4       -0.986042           0.172483E-4       -0.984936
        1.061061           0.151784E-4       -0.986039           0.175883E-4       -0.984933
        1.081081           0.154717E-4       -0.986036           0.179288E-4       -0.984929
        1.101101           0.157655E-4       -0.986033           0.182697E-4       -0.984926
        1.121121           0.160596E-4       -0.986030           0.186112E-4       -0.984922
        1.141141           0.163541E-4       -0.986027           0.189531E-4       -0.984918
        1.161161           0.166491E-4       -0.986024           0.192956E-4       -0.984914
        1.181181           0.169445E-4       -0.986020           0.196386E-4       -0.984910
        1.201201           0.172403E-4       -0.986017           0.199821E-4       -0.984906
        1.221221           0.175366E-4       -0.986013           0.203263E-4       -0.984902
        1.241241           0.178333E-4       -0.986010           0.206709E-4       -0.984898
        1.261261           0.181305E-4       -0.986006           0.210161E-4       -0.984894
        1.281281           0.184282E-4       -0.986002           0.213619E-4       -0.984890
        1.301301           0.187263E-4       -0.985999           0.217083E-4       -0.984886
        1.321321           0.190249E-4       -0.985995           0.220553E-4       -0.984881
        1.341341           0.193240E-4       -0.985991           0.224028E-4       -0.984877
        1.361361           0.196236E-4       -0.985987           0.227510E-4       -0.984872
        1.381381           0.199237E-4       -0.985983           0.230999E-4       -0.984868
        1.401401           0.202243E-4       -0.985979           0.234494E-4       -0.984863
        1.421421           0.205254E-4       -0.985975           0.237995E-4       -0.984858
        1.441441           0.208271E-4       -0.985971           0.241503E-4       -0.984853
        1.461461           0.211293E-4       -0.985967           0.245017E-4       -0.984849
        1.481481           0.214321E-4       -0.985963           0.248538E-4       -0.984844
        1.501501           0.217354E-4       -0.985958           0.252067E-4       -0.984839
        1.521521           0.220393E-4       -0.985954           0.255602E-4       -0.984834
        1.541541           0.223437E-4       -0.985949           0.259144E-4       -0.984828
        1.561561           0.226488E-4       -0.985945           0.262694E-4       -0.984823
        1.581581           0.229544E-4       -0.985940           0.266250E-4       -0.984818
        1.601601           0.232606E-4       -0.985936           0.269815E-4       -0.984812
        1.621622           0.235675E-4       -0.985931           0.273387E-4       -0.984807
        1.641642           0.238749E-4       -0.985926           0.276966E-4       -0.984801
        1.661662           0.241830E-4       -0.985922           0.280553E-4       -0.984796
        1.681682           0.244917E-4       -0.985917           0.284148E-4       -0.984790
        1.701702           0.248011E-4       -0.985912           0.287751E-4       -0.984785
        1.721722           0.251111E-4       -0.985907           0.291363E-4       -0.984779
        1.741742           0.254217E-4       -0.985902           0.294982E-4       -0.984773
        1.761762           0.257331E-4       -0.985897           0.298610E-4       -0.984767
        1.781782           0.260451E-4       -0.985891           0.302246E-4       -0.984761
        1.801802           0.263578E-4       -0.985886           0.305890E-4       -0.984755
        1.821822           0.266712E-4       -0.985881           0.309544E-4       -0.984749
        1.841842           0.269853E-4       -0.985875           0.313206E-4       -0.984742
        1.861862           0.273001E-4       -0.985870           0.316877E-4       -0.984736
        1.881882           0.276157E-4       -0.985865           0.320557E-4       -0.984730
        1.901902           0.279319E-4       -0.985859           0.324246E-4       -0.984723
        1.921922           0.282490E-4       -0.985853           0.327944E-4       -0.984717
        1.941942           0.285667E-4       -0.985848           0.331652E-4       -0.984710
        1.961962           0.288853E-4       -0.985842           0.335369E-4       -0.984704
        1.981982           0.292046E-4       -0.985836           0.339095E-4       -0.984697
        2.002002           0.295247E-4       -0.985830           0.342832E-4       -0.984690
        2.022022           0.298456E-4       -0.985824           0.346578E-4       -0.984683
        2.042042           0.301673E-4       -0.985818           0.350334E-4       -0.984676
        2.062062           0.304897E-4       -0.985812           0.354100E-4       -0.984669
        2.082082           0.308131E-4       -0.985806           0.357877E-4       -0.984662
        2.102102           0.311372E-4       -0.985800           0.361663E-4       -0.984655
        2.122122           0.314621E-4       -0.985794           0.365460E-4       -0.984647
        2.142142           0.317880E-4       -0.985787           0.369268E-4       -0.984640
        2.162162           0.321147E-4       -0.985781           0.373087E-4       -0.984633
        2.182182           0.324422E-4       -0.985774           0.376916E-4       -0.984625
        2.202202           0.327707E-4       -0.985768           0.380756E-4       -0.984618
        2.222222           0.331000E-4       -0.985761           0.384607E-4       -0.984610
        2.242242           0.334302E-4       -0.985755           0.388470E-4       -0.984602
        2.262262           0.337613E-4       -0.985748           0.392343E-4       -0.984594
        2.282282           0.340934E-4       -0.985741           0.396228E-4       -0.984586
        2.302302           0.344264E-4       -0.985734           0.400125E-4       -0.984578
        2.322322           0.347603E-4       -0.985727           0.404034E-4       -0.984570
        2.342342           0.350952E-4       -0.985720           0.407954E-4       -0.984562
        2.362362           0.354310E-4       -0.985713           0.411887E-4       -0.984554
        2.382382           0.357678E-4       -0.985706           0.415831E-4       -0.984546
        2.402402           0.361056E-4       -0.985699           0.419788E-4       -0.984537
        2.422422           0.364444E-4       -0.985692           0.423757E-4       -0.984529
        2.442442           0.367842E-4       -0.985684           0.427739E-4       -0.984520
        2.462462           0.371250E-4       -0.985677           0.431733E-4       -0.984512
        2.482482           0.374669E-4       -0.985669           0.435741E-4       -0.984503
        2.502502           0.378097E-4       -0.985662           0.439761E-4       -0.984494
        2.522522           0.381537E-4       -0.985654           0.443794E-4       -0.984486
        2.542542           0.384987E-4       -0.985647           0.447840E-4       -0.984477
        2.562562           0.388447E-4       -0.985639           0.451900E-4       -0.984468
        2.582582           0.391919E-4       -0.985631           0.455974E-4       -0.984459
        2.602602           0.395401E-4       -0.985623           0.460061E-4       -0.984449
        2.622622           0.398895E-4       -0.985615           0.464162E-4       -0.984440
        2.642642           0.402400E-4       -0.985607           0.468277E-4       -0.984431
        2.662663           0.405915E-4       -0.985599           0.472406E-4       -0.984421
        2.682683           0.409443E-4       -0.985591           0.476549E-4       -0.984412
        2.702703           0.412982E-4       -0.985583           0.480707E-4       -0.984402
        2.722723           0.416533E-4       -0.985574           0.484879E-4       -0.984393
        2.742743           0.420095E-4       -0.985566           0.489067E-4       -0.984383
        2.762763           0.423670E-4       -0.985558           0.493268E-4       -0.984373
        2.782783           0.427256E-4       -0.985549           0.497486E-4       -0.984363
        2.802803           0.430855E-4       -0.985541           0.501718E-4       -0.984353
        2.822823           0.434465E-4       -0.985532           0.505965E-4       -0.984343
        2.842843           0.438089E-4       -0.985523           0.510229E-4       -0.984333
        2.862863           0.441725E-4       -0.985514           0.514508E-4       -0.984323
        2.882883           0.445373E-4       -0.985506           0.518802E-4       -0.984312
        2.902903           0.449034E-4       -0.985497           0.523113E-4       -0.984302
        2.922923           0.452709E-4       -0.985488           0.527440E-4       -0.984291
        2.942943           0.456396E-4       -0.985478           0.531783E-4       -0.984281
        2.962963           0.460096E-4       -0.985469           0.536143E-4       -0.984270
        2.982983           0.463810E-4       -0.985460           0.540519E-4       -0.984259
        3.003003           0.467537E-4       -0.985451           0.544913E-4       -0.984248
        3.023023           0.471278E-4       -0.985441           0.549323E-4       -0.984237
        3.043043           0.475033E-4       -0.985432           0.553751E-4       -0.984227
        3.063063           0.478801E-4       -0.985422           0.558196E-4       -0.984215
        3.083083           0.482584E-4       -0.985413           0.562658E-4       -0.984204
        3.103103           0.486380E-4       -0.985403           0.567139E-4       -0.984193
        3.123123           0.490191E-4       -0.985393           0.571637E-4       -0.984182
        3.143143           0.494017E-4       -0.985383           0.576153E-4       -0.984170
        3.163163           0.497857E-4       -0.985373           0.580688E-4       -0.984158
        3.183183           0.501711E-4       -0.985363           0.585241E-4       -0.984147
        3.203203           0.505581E-4       -0.985353           0.589812E-4       -0.984135
        3.223223           0.509465E-4       -0.985343           0.594403E-4       -0.984123
        3.243243           0.513365E-4       -0.985333           0.599013E-4       -0.984111
        3.263263           0.517280E-4       -0.985323           0.603642E-4       -0.984099
        3.283283           0.521210E-4       -0.985312           0.608290E-4       -0.984087
        3.303303           0.525156E-4       -0.985302           0.612958E-4       -0.984075
        3.323323           0.529118E-4       -0.985291           0.617646E-4       -0.984062
        3.343343           0.533096E-4       -0.985281           0.622353E-4       -0.984050
        3.363363           0.537089E-4       -0.985270           0.627081E-4       -0.984038
        3.383383           0.541099E-4       -0.985259           0.631830E-4       -0.984025
        3.403403           0.545126E-4       -0.985248           0.636598E-4       -0.984012
        3.423423           0.549168E-4       -0.985237           0.641388E-4       -0.983999
        3.443443           0.553228E-4       -0.985226           0.646199E-4       -0.983987
        3.463463           0.557304E-4       -0.985215           0.651031E-4       -0.983974
        3.483483           0.561398E-4       -0.985204           0.655885E-4       -0.983961
        3.503503           0.565509E-4       -0.985193           0.660760E-4       -0.983947
        3.523524           0.569637E-4       -0.985181           0.665657E-4       -0.983934
        3.543543           0.573782E-4       -0.985170           0.670576E-4       -0.983921
        3.563564           0.577946E-4       -0.985158           0.675517E-4       -0.983907
        3.583583           0.582127E-4       -0.985147           0.680481E-4       -0.983894
        3.603603           0.586326E-4       -0.985135           0.685468E-4       -0.983880
        3.623623           0.590543E-4       -0.985123           0.690478E-4       -0.983866
        3.643643           0.594779E-4       -0.985111           0.695511E-4       -0.983852
        3.663663           0.599034E-4       -0.985099           0.700567E-4       -0.983838
        3.683683           0.603307E-4       -0.985087           0.705647E-4       -0.983824
        3.703704           0.607599E-4       -0.985075           0.710751E-4       -0.983810
        3.723723           0.611910E-4       -0.985063           0.715879E-4       -0.983796
        3.743744           0.616241E-4       -0.985051           0.721032E-4       -0.983781
        3.763763           0.620591E-4       -0.985038           0.726209E-4       -0.983767
        3.783784           0.624960E-4       -0.985026           0.731411E-4       -0.983752
        3.803803           0.629350E-4       -0.985013           0.736638E-4       -0.983738
        3.823824           0.633759E-4       -0.985001           0.741891E-4       -0.983723
        3.843843           0.638189E-4       -0.984988           0.747169E-4       -0.983708
        3.863864           0.642639E-4       -0.984975           0.752473E-4       -0.983693
        3.883883           0.647110E-4       -0.984962           0.757803E-4       -0.983678
        3.903904           0.651602E-4       -0.984949           0.763159E-4       -0.983663
        3.923924           0.656114E-4       -0.984936           0.768542E-4       -0.983647
        3.943944           0.660649E-4       -0.984923           0.773952E-4       -0.983632
        3.963964           0.665204E-4       -0.984910           0.779389E-4       -0.983616
        3.983984           0.669781E-4       -0.984896           0.784854E-4       -0.983601
        4.004004           0.674380E-4       -0.984883           0.790346E-4       -0.983585
        4.024024           0.679001E-4       -0.984869           0.795866E-4       -0.983569
        4.044044           0.683644E-4       -0.984856           0.801415E-4       -0.983553
        4.064064           0.688310E-4       -0.984842           0.806992E-4       -0.983537
        4.084084           0.692999E-4       -0.984828           0.812598E-4       -0.983521
        4.104104           0.697710E-4       -0.984814           0.818233E-4       -0.983505
        4.124124           0.702444E-4       -0.984800           0.823897E-4       -0.983488
        4.144144           0.707202E-4       -0.984786           0.829591E-4       -0.983472
        4.164164           0.711984E-4       -0.984772           0.835315E-4       -0.983455
        4.184184           0.716789E-4       -0.984758           0.841070E-4       -0.983438
        4.204204           0.721619E-4       -0.984743           0.846855E-4       -0.983421
        4.224224           0.726472E-4       -0.984729           0.852671E-4       -0.983404
        4.244244           0.731350E-4       -0.984714           0.858517E-4       -0.983387
        4.264264           0.736253E-4       -0.984700           0.864396E-4       -0.983370
        4.284284           0.741181E-4       -0.984685           0.870306E-4       -0.983352
        4.304304           0.746135E-4       -0.984670           0.876248E-4       -0.983335
        4.324324           0.751113E-4       -0.984655           0.882224E-4       -0.983317
        4.344344           0.756117E-4       -0.984640           0.888231E-4       -0.983300
        4.364364           0.761148E-4       -0.984625           0.894272E-4       -0.983282
        4.384384           0.766204E-4       -0.984609           0.900346E-4       -0.983264
        4.404404           0.771287E-4       -0.984594           0.906454E-4       -0.983246
        4.424424           0.776397E-4       -0.984578           0.912596E-4       -0.983228
        4.444444           0.781534E-4       -0.984563           0.918773E-4       -0.983209
        4.464464           0.786698E-4       -0.984547           0.924984E-4       -0.983191
        4.484484           0.791889E-4       -0.984531           0.931231E-4       -0.983172
        4.504504           0.797109E-4       -0.984516           0.937512E-4       -0.983154
        4.524524           0.802356E-4       -0.984499           0.943830E-4       -0.983135
        4.544544           0.807632E-4       -0.984483           0.950184E-4       -0.983116
        4.564565           0.812936E-4       -0.984467           0.956575E-4       -0.983097
        4.584584           0.818269E-4       -0.984451           0.963003E-4       -0.983077
        4.604605           0.823631E-4       -0.984434           0.969467E-4       -0.983058
        4.624624           0.829023E-4       -0.984418           0.975970E-4       -0.983039
        4.644644           0.834445E-4       -0.984401           0.982510E-4       -0.983019
        4.664664           0.839896E-4       -0.984384           0.989090E-4       -0.982999
        4.684684           0.845378E-4       -0.984368           0.995707E-4       -0.982979
        4.704704           0.850891E-4       -0.984351           0.100236E-3       -0.982960
        4.724724           0.856435E-4       -0.984334           0.100906E-3       -0.982939
        4.744744           0.862010E-4       -0.984316           0.101580E-3       -0.982919
        4.764764           0.867616E-4       -0.984299           0.102258E-3       -0.982899
        4.784785           0.873254E-4       -0.984282           0.102939E-3       -0.982878
        4.804804           0.878924E-4       -0.984264           0.103625E-3       -0.982857
        4.824825           0.884627E-4       -0.984246           0.104315E-3       -0.982837
        4.844844           0.890362E-4       -0.984229           0.105010E-3       -0.982816
        4.864865           0.896131E-4       -0.984211           0.105708E-3       -0.982795
        4.884884           0.901933E-4       -0.984193           0.106411E-3       -0.982773
        4.904905           0.907769E-4       -0.984175           0.107118E-3       -0.982752
        4.924924           0.913639E-4       -0.984156           0.107830E-3       -0.982731
        4.944945           0.919544E-4       -0.984138           0.108546E-3       -0.982709
        4.964964           0.925483E-4       -0.984120           0.109267E-3       -0.982687
        4.984985           0.931458E-4       -0.984101           0.109992E-3       -0.982665
        5.005005           0.937468E-4       -0.984082           0.110721E-3       -0.982643
        5.025025           0.943514E-4       -0.984064           0.111456E-3       -0.982621
        5.045045           0.949595E-4       -0.984045           0.112195E-3       -0.982598
        5.065065           0.955714E-4       -0.984026           0.112938E-3       -0.982576
        5.085085           0.961870E-4       -0.984006           0.113687E-3       -0.982553
        5.105105           0.968063E-4       -0.983987           0.114440E-3       -0.982530
        5.125125           0.974294E-4       -0.983968           0.115198E-3       -0.982507
        5.145144           0.980562E-4       -0.983948           0.115961E-3       -0.982484
        5.165165           0.986870E-4       -0.983928           0.116729E-3       -0.982461
        5.185184           0.993216E-4       -0.983908           0.117502E-3       -0.982438
        5.205205           0.999601E-4       -0.983889           0.118280E-3       -0.982414
        5.225225           0.100603E-3       -0.983869           0.119063E-3       -0.982390
        5.245245           0.101249E-3       -0.983848           0.119852E-3       -0.982366
        5.265265           0.101900E-3       -0.983828           0.120645E-3       -0.982342
        5.285285           0.102554E-3       -0.983808           0.121444E-3       -0.982318
        5.305305           0.103213E-3       -0.983787           0.122249E-3       -0.982294
        5.325325           0.103876E-3       -0.983766           0.123058E-3       -0.982269
        5.345345           0.104543E-3       -0.983745           0.123873E-3       -0.982244
        5.365365           0.105215E-3       -0.983724           0.124694E-3       -0.982220
        5.385385           0.105890E-3       -0.983703           0.125520E-3       -0.982194
        5.405405           0.106570E-3       -0.983682           0.126352E-3       -0.982169
        5.425425           0.107255E-3       -0.983661           0.127190E-3       -0.982144
        5.445445           0.107944E-3       -0.983639           0.128033E-3       -0.982118
        5.465465           0.108637E-3       -0.983617           0.128882E-3       -0.982093
        5.485485           0.109335E-3       -0.983596           0.129737E-3       -0.982067
        5.505505           0.110037E-3       -0.983574           0.130599E-3       -0.982041
        5.525526           0.110745E-3       -0.983552           0.131466E-3       -0.982015
        5.545545           0.111456E-3       -0.983529           0.132339E-3       -0.981988
        5.565566           0.112173E-3       -0.983507           0.133218E-3       -0.981962
        5.585585           0.112894E-3       -0.983484           0.134103E-3       -0.981935
        5.605606           0.113620E-3       -0.983462           0.134995E-3       -0.981908
        5.625625           0.114351E-3       -0.983439           0.135893E-3       -0.981881
        5.645645           0.115087E-3       -0.983416           0.136798E-3       -0.981854
        5.665665           0.115828E-3       -0.983393           0.137709E-3       -0.981826
        5.685685           0.116574E-3       -0.983370           0.138627E-3       -0.981798
        5.705705           0.117325E-3       -0.983346           0.139551E-3       -0.981771
        5.725725           0.118081E-3       -0.983323           0.140482E-3       -0.981743
        5.745746           0.118842E-3       -0.983299           0.141420E-3       -0.981714
        5.765765           0.119609E-3       -0.983275           0.142364E-3       -0.981686
        5.785786           0.120381E-3       -0.983251           0.143316E-3       -0.981657
        5.805805           0.121158E-3       -0.983227           0.144274E-3       -0.981629
        5.825826           0.121940E-3       -0.983203           0.145240E-3       -0.981600
        5.845845           0.122728E-3       -0.983178           0.146213E-3       -0.981570
        5.865866           0.123522E-3       -0.983154           0.147193E-3       -0.981541
        5.885885           0.124321E-3       -0.983129           0.148180E-3       -0.981512
        5.905906           0.125126E-3       -0.983104           0.149175E-3       -0.981482
        5.925925           0.125937E-3       -0.983079           0.150178E-3       -0.981452
        5.945946           0.126753E-3       -0.983053           0.151188E-3       -0.981422
        5.965966           0.127575E-3       -0.983028           0.152205E-3       -0.981391
        5.985986           0.128404E-3       -0.983002           0.153231E-3       -0.981361
        6.006006           0.129238E-3       -0.982976           0.154264E-3       -0.981330
        6.026026           0.130078E-3       -0.982951           0.155305E-3       -0.981299
        6.046046           0.130924E-3       -0.982924           0.156354E-3       -0.981268
        6.066066           0.131776E-3       -0.982898           0.157412E-3       -0.981236
        6.086086           0.132635E-3       -0.982872           0.158477E-3       -0.981205
        6.106106           0.133500E-3       -0.982845           0.159551E-3       -0.981173
        6.126126           0.134371E-3       -0.982818           0.160633E-3       -0.981141
        6.146146           0.135249E-3       -0.982791           0.161724E-3       -0.981109
        6.166166           0.136134E-3       -0.982764           0.162824E-3       -0.981076
        6.186186           0.137024E-3       -0.982737           0.163932E-3       -0.981044
        6.206206           0.137922E-3       -0.982709           0.165049E-3       -0.981011
        6.226226           0.138826E-3       -0.982682           0.166175E-3       -0.980978
        6.246246           0.139737E-3       -0.982654           0.167309E-3       -0.980944
        6.266266           0.140655E-3       -0.982626           0.168453E-3       -0.980911
        6.286286           0.141580E-3       -0.982597           0.169607E-3       -0.980877
        6.306306           0.142513E-3       -0.982569           0.170769E-3       -0.980843
        6.326326           0.143452E-3       -0.982540           0.171941E-3       -0.980808
        6.346346           0.144398E-3       -0.982512           0.173123E-3       -0.980774
        6.366366           0.145352E-3       -0.982483           0.174314E-3       -0.980739
        6.386386           0.146313E-3       -0.982453           0.175515E-3       -0.980704
        6.406406           0.147281E-3       -0.982424           0.176726E-3       -0.980669
        6.426426           0.148258E-3       -0.982394           0.177948E-3       -0.980633
        6.446446           0.149241E-3       -0.982365           0.179179E-3       -0.980598
        6.466466           0.150233E-3       -0.982335           0.180420E-3       -0.980562
        6.486486           0.151232E-3       -0.982305           0.181672E-3       -0.980525
        6.506506           0.152239E-3       -0.982274           0.182935E-3       -0.980489
        6.526526           0.153255E-3       -0.982244           0.184208E-3       -0.980452
        6.546546           0.154278E-3       -0.982213           0.185492E-3       -0.980415
        6.566566           0.155309E-3       -0.982182           0.186787E-3       -0.980378
        6.586586           0.156349E-3       -0.982151           0.188093E-3       -0.980340
        6.606606           0.157397E-3       -0.982119           0.189410E-3       -0.980303
        6.626626           0.158454E-3       -0.982088           0.190738E-3       -0.980265
        6.646646           0.159519E-3       -0.982056           0.192078E-3       -0.980226
        6.666666           0.160593E-3       -0.982024           0.193430E-3       -0.980188
        6.686686           0.161676E-3       -0.981992           0.194793E-3       -0.980149
        6.706707           0.162768E-3       -0.981959           0.196169E-3       -0.980110
        6.726726           0.163868E-3       -0.981927           0.197556E-3       -0.980070
        6.746747           0.164978E-3       -0.981894           0.198956E-3       -0.980031
        6.766766           0.166097E-3       -0.981860           0.200368E-3       -0.979991
        6.786787           0.167226E-3       -0.981827           0.201792E-3       -0.979951
        6.806807           0.168363E-3       -0.981794           0.203229E-3       -0.979910
        6.826826           0.169511E-3       -0.981760           0.204679E-3       -0.979869
        6.846846           0.170668E-3       -0.981726           0.206143E-3       -0.979828
        6.866867           0.171835E-3       -0.981691           0.207619E-3       -0.979787
        6.886887           0.173012E-3       -0.981657           0.209109E-3       -0.979745
        6.906906           0.174198E-3       -0.981622           0.210612E-3       -0.979703
        6.926927           0.175395E-3       -0.981587           0.212129E-3       -0.979661
        6.946947           0.176603E-3       -0.981552           0.213660E-3       -0.979618
        6.966967           0.177821E-3       -0.981516           0.215204E-3       -0.979575
        6.986986           0.179049E-3       -0.981481           0.216764E-3       -0.979532
        7.007007           0.180288E-3       -0.981445           0.218337E-3       -0.979488
        7.027027           0.181538E-3       -0.981409           0.219925E-3       -0.979445
        7.047047           0.182798E-3       -0.981372           0.221529E-3       -0.979401
        7.067066           0.184070E-3       -0.981336           0.223147E-3       -0.979356
        7.087087           0.185353E-3       -0.981299           0.224780E-3       -0.979311
        7.107107           0.186648E-3       -0.981261           0.226429E-3       -0.979266
        7.127127           0.187954E-3       -0.981224           0.228093E-3       -0.979221
        7.147147           0.189272E-3       -0.981186           0.229773E-3       -0.979175
        7.167167           0.190601E-3       -0.981148           0.231470E-3       -0.979129
        7.187187           0.191943E-3       -0.981110           0.233182E-3       -0.979082
        7.207206           0.193296E-3       -0.981071           0.234911E-3       -0.979035
        7.227227           0.194662E-3       -0.981033           0.236657E-3       -0.978988
        7.247247           0.196041E-3       -0.980993           0.238420E-3       -0.978941
        7.267267           0.197432E-3       -0.980954           0.240200E-3       -0.978893
        7.287286           0.198835E-3       -0.980914           0.241997E-3       -0.978844
        7.307307           0.200252E-3       -0.980874           0.243812E-3       -0.978796
        7.327327           0.201682E-3       -0.980834           0.245645E-3       -0.978747
        7.347347           0.203125E-3       -0.980794           0.247497E-3       -0.978698
        7.367367           0.204582E-3       -0.980753           0.249366E-3       -0.978648
        7.387387           0.206052E-3       -0.980712           0.251254E-3       -0.978598
        7.407407           0.207536E-3       -0.980670           0.253162E-3       -0.978547
        7.427427           0.209034E-3       -0.980629           0.255088E-3       -0.978496
        7.447447           0.210547E-3       -0.980587           0.257034E-3       -0.978445
        7.467467           0.212073E-3       -0.980545           0.259000E-3       -0.978394
        7.487487           0.213615E-3       -0.980502           0.260985E-3       -0.978342
        7.507507           0.215171E-3       -0.980459           0.262991E-3       -0.978289
        7.527527           0.216742E-3       -0.980416           0.265018E-3       -0.978236
        7.547547           0.218328E-3       -0.980372           0.267065E-3       -0.978183
        7.567567           0.219930E-3       -0.980329           0.269134E-3       -0.978130
        7.587587           0.221547E-3       -0.980284           0.271225E-3       -0.978075
        7.607607           0.223181E-3       -0.980240           0.273337E-3       -0.978021
        7.627627           0.224830E-3       -0.980195           0.275471E-3       -0.977966
        7.647647           0.226495E-3       -0.980150           0.277628E-3       -0.977911
        7.667667           0.228177E-3       -0.980104           0.279807E-3       -0.977855
        7.687687           0.229876E-3       -0.980059           0.282010E-3       -0.977799
        7.707707           0.231592E-3       -0.980012           0.284236E-3       -0.977742
        7.727727           0.233325E-3       -0.979966           0.286487E-3       -0.977685
        7.747747           0.235075E-3       -0.979919           0.288761E-3       -0.977628
        7.767767           0.236843E-3       -0.979872           0.291060E-3       -0.977570
        7.787787           0.238630E-3       -0.979824           0.293384E-3       -0.977511
        7.807807           0.240434E-3       -0.979776           0.295733E-3       -0.977452
        7.827827           0.242257E-3       -0.979728           0.298107E-3       -0.977393
        7.847847           0.244098E-3       -0.979679           0.300509E-3       -0.977333
        7.867867           0.245959E-3       -0.979630           0.302936E-3       -0.977273
        7.887887           0.247839E-3       -0.979581           0.305390E-3       -0.977212
        7.907907           0.249738E-3       -0.979531           0.307872E-3       -0.977150
        7.927927           0.251657E-3       -0.979481           0.310381E-3       -0.977089
        7.947948           0.253597E-3       -0.979430           0.312919E-3       -0.977026
        7.967968           0.255557E-3       -0.979380           0.315485E-3       -0.976963
        7.987987           0.257537E-3       -0.979328           0.318080E-3       -0.976900
        8.008007           0.259539E-3       -0.979276           0.320705E-3       -0.976836
        8.028028           0.261562E-3       -0.979224           0.323360E-3       -0.976772
        8.048048           0.263607E-3       -0.979172           0.326045E-3       -0.976707
        8.068068           0.265674E-3       -0.979119           0.328761E-3       -0.976641
        8.088087           0.267764E-3       -0.979066           0.331509E-3       -0.976575
        8.108108           0.269876E-3       -0.979012           0.334289E-3       -0.976509
        8.128128           0.272011E-3       -0.978958           0.337101E-3       -0.976441
        8.148148           0.274169E-3       -0.978903           0.339946E-3       -0.976374
        8.168168           0.276351E-3       -0.978848           0.342824E-3       -0.976305
        8.188188           0.278558E-3       -0.978792           0.345737E-3       -0.976237
        8.208207           0.280789E-3       -0.978736           0.348684E-3       -0.976167
        8.228228           0.283044E-3       -0.978680           0.351667E-3       -0.976097
        8.248248           0.285326E-3       -0.978623           0.354685E-3       -0.976026
        8.268268           0.287632E-3       -0.978566           0.357740E-3       -0.975955
        8.288287           0.289965E-3       -0.978508           0.360831E-3       -0.975883
        8.308308           0.292325E-3       -0.978450           0.363961E-3       -0.975811
        8.328328           0.294711E-3       -0.978391           0.367128E-3       -0.975738
        8.348348           0.297124E-3       -0.978332           0.370335E-3       -0.975664
        8.368367           0.299566E-3       -0.978272           0.373581E-3       -0.975590
        8.388388           0.302036E-3       -0.978212           0.376867E-3       -0.975514
        8.408408           0.304534E-3       -0.978151           0.380194E-3       -0.975439
        8.428429           0.307061E-3       -0.978090           0.383563E-3       -0.975362
        8.448447           0.309619E-3       -0.978028           0.386974E-3       -0.975285
        8.468468           0.312206E-3       -0.977966           0.390428E-3       -0.975208
        8.488488           0.314824E-3       -0.977904           0.393926E-3       -0.975129
        8.508509           0.317473E-3       -0.977840           0.397469E-3       -0.975050
        8.528527           0.320154E-3       -0.977777           0.401057E-3       -0.974970
        8.548548           0.322866E-3       -0.977712           0.404691E-3       -0.974890
        8.568568           0.325612E-3       -0.977647           0.408372E-3       -0.974808
        8.588589           0.328391E-3       -0.977582           0.412101E-3       -0.974726
        8.608608           0.331203E-3       -0.977516           0.415879E-3       -0.974643
        8.628628           0.334050E-3       -0.977450           0.419706E-3       -0.974560
        8.648648           0.336933E-3       -0.977382           0.423584E-3       -0.974475
        8.668669           0.339850E-3       -0.977315           0.427513E-3       -0.974390
        8.688688           0.342804E-3       -0.977247           0.431495E-3       -0.974304
        8.708708           0.345795E-3       -0.977178           0.435530E-3       -0.974218
        8.728728           0.348823E-3       -0.977108           0.439619E-3       -0.974130
        8.748748           0.351889E-3       -0.977038           0.443763E-3       -0.974042
        8.768768           0.354994E-3       -0.976967           0.447964E-3       -0.973953
        8.788788           0.358138E-3       -0.976896           0.452222E-3       -0.973863
        8.808808           0.361323E-3       -0.976824           0.456539E-3       -0.973772
        8.828828           0.364548E-3       -0.976752           0.460915E-3       -0.973680
        8.848848           0.367815E-3       -0.976678           0.465352E-3       -0.973588
        8.868869           0.371125E-3       -0.976604           0.469850E-3       -0.973494
        8.888888           0.374478E-3       -0.976530           0.474412E-3       -0.973400
        8.908908           0.377874E-3       -0.976455           0.479038E-3       -0.973304
        8.928928           0.381315E-3       -0.976379           0.483729E-3       -0.973208
        8.948949           0.384802E-3       -0.976302           0.488487E-3       -0.973111
        8.968968           0.388335E-3       -0.976225           0.493314E-3       -0.973013
        8.988988           0.391915E-3       -0.976147           0.498209E-3       -0.972914
        9.009008           0.395544E-3       -0.976068           0.503176E-3       -0.972814
        9.029029           0.399221E-3       -0.975989           0.508214E-3       -0.972712
        9.049048           0.402948E-3       -0.975908           0.513327E-3       -0.972610
        9.069068           0.406726E-3       -0.975827           0.518514E-3       -0.972507
        9.089088           0.410556E-3       -0.975745           0.523778E-3       -0.972403
        9.109109           0.414439E-3       -0.975663           0.529120E-3       -0.972298
        9.129129           0.418376E-3       -0.975580           0.534542E-3       -0.972191
        9.149148           0.422367E-3       -0.975496           0.540046E-3       -0.972084
        9.169168           0.426415E-3       -0.975411           0.545632E-3       -0.971975
        9.189189           0.430519E-3       -0.975325           0.551304E-3       -0.971866
        9.209209           0.434682E-3       -0.975239           0.557062E-3       -0.971755
        9.229228           0.438904E-3       -0.975151           0.562908E-3       -0.971643
        9.249249           0.443186E-3       -0.975063           0.568844E-3       -0.971530
        9.269269           0.447530E-3       -0.974974           0.574873E-3       -0.971415
        9.289289           0.451936E-3       -0.974884           0.580996E-3       -0.971300
        9.309309           0.456407E-3       -0.974793           0.587215E-3       -0.971183
        9.329329           0.460944E-3       -0.974702           0.593533E-3       -0.971065
        9.349349           0.465547E-3       -0.974609           0.599951E-3       -0.970946
        9.369369           0.470218E-3       -0.974515           0.606471E-3       -0.970825
        9.389389           0.474959E-3       -0.974421           0.613096E-3       -0.970703
        9.409409           0.479770E-3       -0.974326           0.619829E-3       -0.970580
        9.429429           0.484655E-3       -0.974229           0.626671E-3       -0.970455
        9.449449           0.489612E-3       -0.974132           0.633624E-3       -0.970329
        9.469469           0.494646E-3       -0.974033           0.640693E-3       -0.970202
        9.489489           0.499757E-3       -0.973934           0.647878E-3       -0.970073
        9.509509           0.504946E-3       -0.973834           0.655183E-3       -0.969943
        9.529529           0.510216E-3       -0.973732           0.662610E-3       -0.969811
        9.549549           0.515568E-3       -0.973630           0.670163E-3       -0.969678
        9.569570           0.521004E-3       -0.973526           0.677844E-3       -0.969544
        9.589589           0.526526E-3       -0.973421           0.685657E-3       -0.969407
        9.609609           0.532135E-3       -0.973315           0.693603E-3       -0.969269
        9.629629           0.537834E-3       -0.973208           0.701686E-3       -0.969130
        9.649650           0.543624E-3       -0.973100           0.709911E-3       -0.968989
        9.669669           0.549508E-3       -0.972991           0.718279E-3       -0.968846
        9.689689           0.555488E-3       -0.972881           0.726795E-3       -0.968702
        9.709709           0.561565E-3       -0.972769           0.735462E-3       -0.968556
        9.729730           0.567743E-3       -0.972656           0.744284E-3       -0.968408
        9.749749           0.574023E-3       -0.972542           0.753263E-3       -0.968258
        9.769769           0.580407E-3       -0.972426           0.762406E-3       -0.968107
        9.789789           0.586899E-3       -0.972310           0.771715E-3       -0.967953
        9.809810           0.593500E-3       -0.972192           0.781194E-3       -0.967798
        9.829829           0.600214E-3       -0.972073           0.790848E-3       -0.967641
        9.849849           0.607042E-3       -0.971952           0.800682E-3       -0.967482
        9.869869           0.613988E-3       -0.971830           0.810699E-3       -0.967321
        9.889890           0.621054E-3       -0.971707           0.820905E-3       -0.967158
        9.909909           0.628243E-3       -0.971582           0.831304E-3       -0.966993
        9.929929           0.635559E-3       -0.971455           0.841902E-3       -0.966826
        9.949949           0.643004E-3       -0.971328           0.852704E-3       -0.966657
        9.969970           0.650582E-3       -0.971198           0.863714E-3       -0.966485
        9.989989           0.658295E-3       -0.971068           0.874939E-3       -0.966312
        10.01001           0.666147E-3       -0.970935           0.886384E-3       -0.966136
        10.03003           0.674142E-3       -0.970801           0.898055E-3       -0.965957
        10.05005           0.682283E-3       -0.970666           0.909959E-3       -0.965777
        10.07007           0.690573E-3       -0.970529           0.922101E-3       -0.965594
        10.09009           0.699018E-3       -0.970390           0.934489E-3       -0.965408
        10.11011           0.707620E-3       -0.970249           0.947128E-3       -0.965221
        10.13013           0.716384E-3       -0.970107           0.960027E-3       -0.965030
        10.15015           0.725314E-3       -0.969963           0.973191E-3       -0.964837
        10.17017           0.734414E-3       -0.969817           0.986630E-3       -0.964641
        10.19019           0.743689E-3       -0.969669           0.001000          -0.964443
        10.21021           0.753143E-3       -0.969520           0.001014          -0.964242
        10.23023           0.762781E-3       -0.969369           0.001029          -0.964038
        10.25025           0.772609E-3       -0.969215           0.001043          -0.963831
        10.27027           0.782631E-3       -0.969060           0.001058          -0.963621
        10.29029           0.792853E-3       -0.968902           0.001073          -0.963408
        10.31031           0.803280E-3       -0.968743           0.001089          -0.963192
        10.33033           0.813918E-3       -0.968581           0.001105          -0.962973
        10.35035           0.824773E-3       -0.968418           0.001121          -0.962751
        10.37037           0.835851E-3       -0.968252           0.001138          -0.962525
        10.39039           0.847158E-3       -0.968084           0.001155          -0.962296
        10.41041           0.858701E-3       -0.967913           0.001172          -0.962064
        10.43043           0.870487E-3       -0.967741           0.001190          -0.961828
        10.45045           0.882522E-3       -0.967566           0.001208          -0.961589
        10.47047           0.894815E-3       -0.967388           0.001227          -0.961346
        10.49049           0.907372E-3       -0.967208           0.001246          -0.961099
        10.51051           0.920203E-3       -0.967026           0.001266          -0.960849
        10.53053           0.933313E-3       -0.966841           0.001286          -0.960594
        10.55055           0.946713E-3       -0.966653           0.001306          -0.960335
        10.57057           0.960412E-3       -0.966463           0.001327          -0.960072
        10.59059           0.974418E-3       -0.966270           0.001349          -0.959805
        10.61061           0.988741E-3       -0.966074           0.001371          -0.959534
        10.63063           0.001003          -0.965875           0.001394          -0.959258
        10.65065           0.001018          -0.965673           0.001417          -0.958978
        10.67067           0.001034          -0.965468           0.001441          -0.958693
        10.69069           0.001049          -0.965260           0.001465          -0.958403
        10.71071           0.001065          -0.965049           0.001490          -0.958108
        10.73073           0.001082          -0.964835           0.001516          -0.957809
        10.75075           0.001099          -0.964617           0.001542          -0.957504
        10.77077           0.001116          -0.964396           0.001569          -0.957193
        10.79079           0.001134          -0.964172           0.001597          -0.956878
        10.81081           0.001152          -0.963944           0.001626          -0.956557
        10.83083           0.001170          -0.963712           0.001655          -0.956229
        10.85085           0.001189          -0.963477           0.001685          -0.955897
        10.87087           0.001209          -0.963237           0.001716          -0.955557
        10.89089           0.001229          -0.962994           0.001748          -0.955212
        10.91091           0.001249          -0.962747           0.001781          -0.954860
        10.93093           0.001271          -0.962496           0.001815          -0.954502
        10.95095           0.001292          -0.962240           0.001850          -0.954137
        10.97097           0.001314          -0.961980           0.001885          -0.953765
        10.99099           0.001337          -0.961716           0.001922          -0.953386
        11.01101           0.001361          -0.961447           0.001960          -0.952999
        11.03103           0.001385          -0.961173           0.002000          -0.952604
        11.05105           0.001409          -0.960895           0.002040          -0.952202
        11.07107           0.001435          -0.960611           0.002082          -0.951792
        11.09109           0.001461          -0.960322           0.002125          -0.951373
        11.11111           0.001488          -0.960029           0.002169          -0.950946
        11.13113           0.001516          -0.959729           0.002215          -0.950509
        11.15115           0.001544          -0.959424           0.002262          -0.950064
        11.17117           0.001573          -0.959114           0.002311          -0.949609
        11.19119           0.001604          -0.958797           0.002361          -0.949144
        11.21121           0.001635          -0.958475           0.002413          -0.948669
        11.23123           0.001667          -0.958146           0.002467          -0.948184
        11.25125           0.001700          -0.957810           0.002523          -0.947687
        11.27127           0.001734          -0.957469           0.002581          -0.947180
        11.29129           0.001769          -0.957120           0.002641          -0.946661
        11.31131           0.001806          -0.956764           0.002703          -0.946129
        11.33133           0.001843          -0.956401           0.002767          -0.945586
        11.35135           0.001882          -0.956030           0.002834          -0.945029
        11.37137           0.001922          -0.955651           0.002903          -0.944459
        11.39139           0.001963          -0.955265           0.002975          -0.943875
        11.41141           0.002006          -0.954870           0.003049          -0.943277
        11.43143           0.002050          -0.954466           0.003127          -0.942664
        11.45145           0.002096          -0.954054           0.003207          -0.942035
        11.47147           0.002143          -0.953633           0.003291          -0.941390
        11.49149           0.002193          -0.953201           0.003378          -0.940729
        11.51151           0.002243          -0.952760           0.003469          -0.940049
        11.53153           0.002296          -0.952309           0.003564          -0.939352
        11.55155           0.002351          -0.951847           0.003662          -0.938636
        11.57157           0.002408          -0.951375           0.003765          -0.937900
        11.59159           0.002467          -0.950891           0.003872          -0.937143
        11.61161           0.002528          -0.950395           0.003985          -0.936365
        11.63163           0.002592          -0.949886           0.004102          -0.935564
        11.65165           0.002658          -0.949365           0.004224          -0.934740
        11.67167           0.002727          -0.948831           0.004353          -0.933892
        11.69169           0.002799          -0.948283           0.004487          -0.933018
        11.71171           0.002874          -0.947720           0.004628          -0.932116
        11.73173           0.002952          -0.947142           0.004776          -0.931187
        11.75175           0.003033          -0.946549           0.004931          -0.930229
        11.77177           0.003118          -0.945940           0.005094          -0.929239
        11.79179           0.003206          -0.945313           0.005265          -0.928217
        11.81181           0.003299          -0.944669           0.005445          -0.927161
        11.83183           0.003396          -0.944006           0.005636          -0.926068
        11.85185           0.003497          -0.943324           0.005836          -0.924938
        11.87187           0.003604          -0.942622           0.006048          -0.923769
        11.89189           0.003715          -0.941898           0.006271          -0.922557
        11.91191           0.003832          -0.941152           0.006508          -0.921300
        11.93193           0.003955          -0.940383           0.006758          -0.919997
        11.95195           0.004084          -0.939590           0.007024          -0.918644
        11.97197           0.004219          -0.938770           0.007305          -0.917239
        11.99199           0.004362          -0.937924           0.007605          -0.915778
        12.01201           0.004513          -0.937049           0.007924          -0.914258
        12.03203           0.004671          -0.936144           0.008263          -0.912674
        12.05205           0.004839          -0.935208           0.008625          -0.911025
        12.07207           0.005016          -0.934238           0.009013          -0.909303
        12.09209           0.005204          -0.933233           0.009427          -0.907506
        12.11211           0.005403          -0.932191           0.009871          -0.905628
        12.13213           0.005613          -0.931110           0.010348          -0.903663
        12.15215           0.005837          -0.929987           0.010861          -0.901605
        12.17217           0.006075          -0.928820           0.011414          -0.899447
        12.19219           0.006329          -0.927606           0.012010          -0.897182
        12.21221           0.006599          -0.926342           0.012655          -0.894801
        12.23223           0.006887          -0.925024           0.013355          -0.892296
        12.25225           0.007196          -0.923650           0.014115          -0.889657
        12.27227           0.007526          -0.922216           0.014943          -0.886872
        12.29229           0.007881          -0.920717           0.015846          -0.883930
        12.31231           0.008262          -0.919149           0.016835          -0.880816
        12.33233           0.008672          -0.917507           0.017920          -0.877515
        12.35235           0.009115          -0.915785           0.019115          -0.874011
        12.37237           0.009593          -0.913977           0.020433          -0.870285
        12.39239           0.010111          -0.912077           0.021894          -0.866315
        12.41241           0.010673          -0.910077           0.023519          -0.862077
        12.43243           0.011285          -0.907970           0.025331          -0.857544
        12.45245           0.011952          -0.905745           0.027361          -0.852687
        12.47247           0.012682          -0.903394           0.029644          -0.847469
        12.49249           0.013482          -0.900906           0.032225          -0.841853
        12.51251           0.014362          -0.898266           0.035156          -0.835795
        12.53253           0.015332          -0.895463           0.038502          -0.829243
        12.55255           0.016406          -0.892480           0.042344          -0.822143
        12.57257           0.017599          -0.889300           0.046782          -0.814429
        12.59259           0.018928          -0.885902           0.051941          -0.806032
        12.61261           0.020415          -0.882266           0.057981          -0.796874
        12.63263           0.022086          -0.878365           0.065107          -0.786871
        12.65265           0.023972          -0.874171           0.073582          -0.775935
        12.67267           0.026111          -0.869653           0.083750          -0.763984
        12.69269           0.028549          -0.864773           0.096060          -0.750953
        12.71271           0.031343          -0.859490           0.111110          -0.736817
        12.73273           0.034566          -0.853757           0.129689          -0.721640
        12.75275           0.038307          -0.847524           0.152843          -0.705659
        12.77277           0.042679          -0.840733           0.181943          -0.689428
        12.79279           0.047826          -0.833320           0.218729          -0.674083
        12.81281           0.053934          -0.825222           0.265251          -0.661778
        12.83283           0.061246          -0.816375           0.323518          -0.656355
        12.85285           0.070080          -0.806725           0.394449          -0.664132
        12.87287           0.080852          -0.796244           0.475561          -0.694204
        12.89289           0.094118          -0.784959           0.557404          -0.756453
        12.91291           0.110614          -0.773011           0.621463          -0.854990
        12.93293           0.131307          -0.760742           0.645963          -0.979109
        12.95295           0.157437          -0.748879           0.620744          -1.102995
        12.97297           0.190502          -0.738818           0.556259          -1.200990
        12.99299           0.232062          -0.733086           0.474344          -1.262653
        13.01301           0.283125          -0.735938           0.393376          -1.292270
        13.03303           0.342655          -0.753747           0.322672          -1.299745
        13.05305           0.405057          -0.794099           0.264635          -1.294134
        13.07307           0.457966          -0.861765           0.218318          -1.281714
        13.09309           0.484749          -0.951824           0.181704          -1.266291
        13.11311           0.474620          -1.046923           0.152744          -1.249999
        13.13313           0.431860          -1.126406           0.129707          -1.233962
        13.15315           0.371955          -1.179253           0.111228          -1.218730
        13.17317           0.310046          -1.206593           0.096263          -1.204533
        13.19319           0.254750          -1.215446           0.084027          -1.191432
        13.21321           0.208861          -1.213007           0.073926          -1.179404
        13.23323           0.172071          -1.204507           0.065513          -1.168383
        13.25325           0.142955          -1.193200           0.058444          -1.158285
        13.27327           0.119945          -1.180939           0.052458          -1.149023
        13.29329           0.101673          -1.168714           0.047352          -1.140514
        13.31331           0.087049          -1.157022           0.042965          -1.132679
        13.33333           0.075235          -1.146079           0.039174          -1.125448
        13.35335           0.065599          -1.135955           0.035877          -1.118756
        13.37337           0.057664          -1.126645           0.032996          -1.112548
        13.39339           0.051069          -1.118104           0.030464          -1.106773
        13.41341           0.045541          -1.110270           0.028230          -1.101387
        13.43343           0.040870          -1.103079           0.026251          -1.096351
        13.45345           0.036893          -1.096467           0.024490          -1.091631
        13.47347           0.033483          -1.090374           0.022918          -1.087195
        13.49349           0.030541          -1.084745           0.021510          -1.083017
        13.51351           0.027988          -1.079532           0.020245          -1.079071
        13.53353           0.025761          -1.074690           0.019107          -1.075338
        13.55355           0.023807          -1.070180           0.018079          -1.071797
        13.57357           0.022086          -1.065969           0.017149          -1.068431
        13.59359           0.020563          -1.062026           0.016306          -1.065225
        13.61361           0.019211          -1.058324           0.015541          -1.062164
        13.63363           0.018007          -1.054840           0.014846          -1.059236
        13.65365           0.016930          -1.051552           0.014213          -1.056430
        13.67367           0.015964          -1.048442           0.013637          -1.053735
        13.69369           0.015096          -1.045493           0.013113          -1.051142
        13.71371           0.014314          -1.042689           0.012635          -1.048641
        13.73373           0.013608          -1.040019           0.012200          -1.046225
        13.75375           0.012970          -1.037469           0.011804          -1.043887
        13.77377           0.012392          -1.035028           0.011445          -1.041619
        13.79379           0.011868          -1.032688           0.011118          -1.039416
        13.81381           0.011392          -1.030439           0.010823          -1.037271
        13.83383           0.010961          -1.028273           0.010557          -1.035179
        13.85385           0.010569          -1.026184           0.010319          -1.033134
        13.87387           0.010213          -1.024163           0.010106          -1.031132
        13.89389           0.009890          -1.022204           0.009918          -1.029169
        13.91391           0.009597          -1.020303           0.009753          -1.027239
        13.93393           0.009333          -1.018454           0.009610          -1.025338
        13.95395           0.009094          -1.016652           0.009489          -1.023462
        13.97397           0.008879          -1.014893           0.009389          -1.021608
        13.99399           0.008686          -1.013171           0.009310          -1.019771
        14.01401           0.008515          -1.011484           0.009251          -1.017948
        14.03403           0.008363          -1.009828           0.009212          -1.016134
        14.05405           0.008230          -1.008198           0.009193          -1.014326
        14.07407           0.008114          -1.006591           0.009195          -1.012520
        14.09409           0.008016          -1.005005           0.009217          -1.010712
        14.11411           0.007933          -1.003436           0.009260          -1.008899
        14.13413           0.007867          -1.001881           0.009325          -1.007076
        14.15415           0.007816          -1.000337           0.009412          -1.005240
        14.17417           0.007780          -0.998801           0.009523          -1.003385
        14.19419           0.007759          -0.997270           0.009658          -1.001508
        14.21421           0.007753          -0.995742           0.009819          -0.999605
        14.23423           0.007761          -0.994214           0.010008          -0.997669
        14.25425           0.007784          -0.992683           0.010227          -0.995696
        14.27427           0.007822          -0.991146           0.010477          -0.993681
        14.29429           0.007874          -0.989601           0.010763          -0.991618
        14.31431           0.007942          -0.988044           0.011086          -0.989499
        14.33433           0.008026          -0.986473           0.011451          -0.987318
        14.35435           0.008126          -0.984884           0.011861          -0.985068
        14.37437           0.008243          -0.983275           0.012323          -0.982740
        14.39439           0.008378          -0.981642           0.012841          -0.980325
        14.41441           0.008532          -0.979982           0.013423          -0.977814
        14.43443           0.008705          -0.978291           0.014076          -0.975193
        14.45445           0.008899          -0.976566           0.014810          -0.972453
        14.47447           0.009115          -0.974802           0.015636          -0.969578
        14.49449           0.009355          -0.972995           0.016567          -0.966554
        14.51451           0.009620          -0.971141           0.017620          -0.963363
        14.53453           0.009914          -0.969235           0.018814          -0.959985
        14.55455           0.010237          -0.967272           0.020171          -0.956399
        14.57457           0.010593          -0.965246           0.021720          -0.952579
        14.59459           0.010985          -0.963150           0.023495          -0.948498
        14.61461           0.011416          -0.960979           0.025539          -0.944125
        14.63463           0.011890          -0.958724           0.027905          -0.939423
        14.65465           0.012412          -0.956379           0.030659          -0.934354
        14.67467           0.012988          -0.953934           0.033885          -0.928873
        14.69469           0.013622          -0.951379           0.037689          -0.922932
        14.71471           0.014324          -0.948703           0.042210          -0.916482
        14.73473           0.015100          -0.945896           0.047624          -0.909471
        14.75475           0.015960          -0.942944           0.054166          -0.901856
        14.77477           0.016917          -0.939831           0.062142          -0.893611
        14.79480           0.017982          -0.936542           0.071961          -0.884745
        14.81481           0.019172          -0.933058           0.084161          -0.875347
        14.83483           0.020506          -0.929359           0.099456          -0.865646
        14.85485           0.022006          -0.925420           0.118766          -0.856133
        14.87487           0.023699          -0.921217           0.143215          -0.847772
        14.89489           0.025617          -0.916718           0.174027          -0.842324
        14.91491           0.027802          -0.911890           0.212122          -0.842799
        14.93493           0.030300          -0.906695           0.257108          -0.853831
        14.95495           0.033173          -0.901091           0.305477          -0.881259
        14.97497           0.036496          -0.895027           0.348654          -0.929550
        14.99499           0.040363          -0.888452           0.373935          -0.996632
        15.01501           0.044895          -0.881303           0.371431          -1.070612
        15.03503           0.050243          -0.873519           0.342193          -1.135122
        15.05505           0.056604          -0.865032           0.297261          -1.179823
        15.07507           0.064236          -0.855776           0.248951          -1.204129
        15.09509           0.073474          -0.845700           0.204933          -1.213042
        15.11511           0.084763          -0.834780           0.168033          -1.212303
        15.13513           0.098693          -0.823053           0.138310          -1.206265
        15.15515           0.116043          -0.810684           0.114751          -1.197697
        15.17517           0.137839          -0.798061           0.096129          -1.188195
        15.19519           0.165386          -0.785996           0.081352          -1.178625
        15.21521           0.200245          -0.776037           0.069535          -1.169423
        15.23524           0.243998          -0.770962           0.059998          -1.160789
        15.25525           0.297507          -0.775394           0.052225          -1.152793
        15.27527           0.359287          -0.796119           0.045829          -1.145437
        15.29529           0.422815          -0.840862           0.040514          -1.138691
        15.31531           0.474554          -0.913657           0.036060          -1.132511
        15.33533           0.497521          -1.007794           0.032294          -1.126844
        15.35535           0.482296          -1.104293           0.029087          -1.121643
        15.37537           0.435246          -1.182636           0.026334          -1.116859
        15.39540           0.372820          -1.233248           0.023956          -1.112450
        15.41541           0.309868          -1.258456           0.021888          -1.108376
        15.43543           0.254328          -1.265731           0.020080          -1.104605
        15.45545           0.208503          -1.262244           0.018490          -1.101104
        15.47547           0.171852          -1.253077           0.017084          -1.097848
        15.49549           0.142860          -1.241347           0.015837          -1.094811
        15.51551           0.119931          -1.228813           0.014724          -1.091973
        15.53553           0.101700          -1.216412           0.013727          -1.089316
        15.55556           0.087083          -1.204603           0.012831          -1.086822
        15.57557           0.075254          -1.193585           0.012023          -1.084477
        15.59559           0.065587          -1.183418           0.011291          -1.082269
        15.61561           0.057609          -1.174086           0.010626          -1.080185
        15.63563           0.050965          -1.165543           0.010021          -1.078215
        15.65565           0.045382          -1.157725           0.009468          -1.076349
        15.67568           0.040653          -1.150565           0.008961          -1.074580
        15.69569           0.036617          -1.143998           0.008495          -1.072901
        15.71572           0.033147          -1.137964           0.008067          -1.071303
        15.73573           0.030145          -1.132407           0.007671          -1.069782
        15.75575           0.027531          -1.127278           0.007306          -1.068331
        15.77577           0.025242          -1.122533           0.006967          -1.066946
        15.79579           0.023227          -1.118133           0.006652          -1.065622
        15.81581           0.021445          -1.114045           0.006360          -1.064356
        15.83584           0.019861          -1.110235           0.006087          -1.063143
        15.85585           0.018448          -1.106680           0.005832          -1.061979
        15.87588           0.017181          -1.103354           0.005594          -1.060862
        15.89590           0.016042          -1.100237           0.005371          -1.059790
        15.91591           0.015014          -1.097310           0.005162          -1.058758
        15.93594           0.014083          -1.094555           0.004966          -1.057765
        15.95595           0.013237          -1.091960           0.004781          -1.056808
        15.97597           0.012467          -1.089510           0.004607          -1.055886
        15.99600           0.011763          -1.087193           0.004443          -1.054997
        16.01601           0.011118          -1.084999           0.004288          -1.054138
        16.03603           0.010525          -1.082919           0.004141          -1.053308
        16.05606           0.009980          -1.080943           0.004003          -1.052505
        16.07607           0.009477          -1.079064           0.003871          -1.051729
        16.09610           0.009012          -1.077276           0.003747          -1.050978
        16.11612           0.008581          -1.075570           0.003629          -1.050250
        16.13614           0.008182          -1.073943           0.003516          -1.049544
        16.15616           0.007810          -1.072388           0.003409          -1.048860
        16.17617           0.007463          -1.070901           0.003308          -1.048196
        16.19619           0.007140          -1.069477           0.003211          -1.047551
        16.21622           0.006838          -1.068112           0.003118          -1.046925
        16.23623           0.006556          -1.066803           0.003030          -1.046317
        16.25626           0.006291          -1.065546           0.002946          -1.045725
        16.27628           0.006042          -1.064338           0.002865          -1.045149
        16.29630           0.005808          -1.063177           0.002788          -1.044589
        16.31632           0.005588          -1.062058           0.002714          -1.044044
        16.33634           0.005381          -1.060981           0.002644          -1.043512
        16.35636           0.005185          -1.059942           0.002576          -1.042995
        16.37638           0.005000          -1.058941           0.002511          -1.042490
        16.39639           0.004826          -1.057974           0.002449          -1.041998
        16.41641           0.004660          -1.057039           0.002389          -1.041518
        16.43644           0.004504          -1.056136           0.002331          -1.041049
        16.45646           0.004355          -1.055263           0.002276          -1.040592
        16.47648           0.004214          -1.054417           0.002222          -1.040145
        16.49650           0.004080          -1.053599           0.002171          -1.039709
        16.51652           0.003952          -1.052805           0.002121          -1.039282
        16.53654           0.003831          -1.052037           0.002074          -1.038865
        16.55655           0.003715          -1.051291           0.002028          -1.038457
        16.57657           0.003604          -1.050567           0.001983          -1.038058
        16.59660           0.003499          -1.049864           0.001941          -1.037668
        16.61662           0.003399          -1.049181           0.001899          -1.037286
        16.63664           0.003302          -1.048518           0.001859          -1.036912
        16.65666           0.003210          -1.047873           0.001821          -1.036546
        16.67668           0.003122          -1.047245           0.001783          -1.036188
        16.69670           0.003038          -1.046635           0.001747          -1.035836
        16.71671           0.002957          -1.046040           0.001712          -1.035492
        16.73673           0.002880          -1.045462           0.001678          -1.035154
        16.75676           0.002806          -1.044898           0.001646          -1.034823
        16.77678           0.002734          -1.044348           0.001614          -1.034499
        16.79680           0.002666          -1.043812           0.001583          -1.034180
        16.81682           0.002600          -1.043289           0.001553          -1.033868
        16.83684           0.002536          -1.042779           0.001524          -1.033561
        16.85686           0.002475          -1.042282           0.001496          -1.033260
        16.87687           0.002417          -1.041796           0.001469          -1.032965
        16.89689           0.002360          -1.041321           0.001442          -1.032675
        16.91692           0.002305          -1.040858           0.001417          -1.032390
        16.93694           0.002253          -1.040404           0.001392          -1.032110
        16.95695           0.002202          -1.039962           0.001367          -1.031835
        16.97698           0.002153          -1.039528           0.001344          -1.031565
        16.99700           0.002106          -1.039105           0.001321          -1.031299
        17.01702           0.002060          -1.038691           0.001298          -1.031038
        17.03704           0.002016          -1.038285           0.001276          -1.030781
        17.05705           0.001973          -1.037888           0.001255          -1.030529
        17.07708           0.001932          -1.037500           0.001235          -1.030280
        17.09710           0.001892          -1.037119           0.001214          -1.030036
        17.11712           0.001853          -1.036746           0.001195          -1.029796
        17.13714           0.001816          -1.036381           0.001176          -1.029559
        17.15716           0.001780          -1.036023           0.001157          -1.029327
        17.17718           0.001745          -1.035672           0.001139          -1.029098
        17.19720           0.001711          -1.035328           0.001121          -1.028872
        17.21722           0.001678          -1.034990           0.001104          -1.028650
        17.23724           0.001645          -1.034659           0.001087          -1.028431
        17.25726           0.001614          -1.034335           0.001071          -1.028216
        17.27728           0.001584          -1.034016           0.001055          -1.028004
        17.29730           0.001555          -1.033703           0.001039          -1.027795
        17.31732           0.001526          -1.033396           0.001024          -1.027589
        17.33734           0.001499          -1.033095           0.001009          -1.027386
        17.35736           0.001472          -1.032799           0.994270E-3       -1.027186
        17.37738           0.001446          -1.032508           0.980000E-3       -1.026989
        17.39740           0.001420          -1.032222           0.966051E-3       -1.026795
        17.41742           0.001396          -1.031941           0.952415E-3       -1.026603
        17.43744           0.001371          -1.031666           0.939081E-3       -1.026414
        17.45746           0.001348          -1.031394           0.926040E-3       -1.026228
        17.47748           0.001325          -1.031128           0.913283E-3       -1.026045
        17.49750           0.001303          -1.030866           0.900803E-3       -1.025863
        17.51752           0.001281          -1.030608           0.888588E-3       -1.025685
        17.53754           0.001260          -1.030354           0.876635E-3       -1.025509
        17.55756           0.001240          -1.030105           0.864932E-3       -1.025335
        17.57758           0.001220          -1.029860           0.853475E-3       -1.025163
        17.59760           0.001200          -1.029618           0.842255E-3       -1.024994
        17.61762           0.001181          -1.029381           0.831266E-3       -1.024827
        17.63764           0.001163          -1.029147           0.820501E-3       -1.024662
        17.65766           0.001144          -1.028917           0.809955E-3       -1.024499
        17.67768           0.001127          -1.028690           0.799619E-3       -1.024338
        17.69770           0.001110          -1.028467           0.789491E-3       -1.024179
        17.71772           0.001093          -1.028247           0.779562E-3       -1.024022
        17.73774           0.001076          -1.028031           0.769828E-3       -1.023868
        17.75776           0.001060          -1.027818           0.760285E-3       -1.023715
        17.77778           0.001044          -1.027607           0.750925E-3       -1.023564
        17.79780           0.001029          -1.027401           0.741746E-3       -1.023415
        17.81782           0.001014          -1.027197           0.732741E-3       -1.023268
        17.83784           0.999443E-3       -1.026996           0.723906E-3       -1.023122
        17.85786           0.985113E-3       -1.026798           0.715238E-3       -1.022978
        17.87788           0.971098E-3       -1.026602           0.706730E-3       -1.022836
        17.89790           0.957392E-3       -1.026410           0.698381E-3       -1.022696
        17.91792           0.943985E-3       -1.026220           0.690185E-3       -1.022557
        17.93794           0.930866E-3       -1.026033           0.682138E-3       -1.022420
        17.95796           0.918029E-3       -1.025848           0.674237E-3       -1.022284
        17.97798           0.905466E-3       -1.025666           0.666479E-3       -1.022150
        17.99800           0.893166E-3       -1.025486           0.658859E-3       -1.022018
        18.01802           0.881125E-3       -1.025309           0.651374E-3       -1.021887
        18.03804           0.869335E-3       -1.025134           0.644022E-3       -1.021757
        18.05806           0.857786E-3       -1.024962           0.636797E-3       -1.021630
        18.07808           0.846474E-3       -1.024792           0.629699E-3       -1.021503
        18.09810           0.835392E-3       -1.024624           0.622723E-3       -1.021378
        18.11812           0.824534E-3       -1.024458           0.615867E-3       -1.021254
        18.13814           0.813893E-3       -1.024294           0.609128E-3       -1.021132
        18.15816           0.803462E-3       -1.024133           0.602503E-3       -1.021010
        18.17818           0.793238E-3       -1.023973           0.595989E-3       -1.020891
        18.19820           0.783215E-3       -1.023816           0.589585E-3       -1.020772
        18.21822           0.773385E-3       -1.023660           0.583287E-3       -1.020655
        18.23824           0.763746E-3       -1.023507           0.577093E-3       -1.020539
        18.25826           0.754290E-3       -1.023355           0.571000E-3       -1.020424
        18.27828           0.745016E-3       -1.023205           0.565007E-3       -1.020311
        18.29830           0.735916E-3       -1.023057           0.559111E-3       -1.020198
        18.31832           0.726987E-3       -1.022911           0.553309E-3       -1.020087
        18.33834           0.718225E-3       -1.022767           0.547601E-3       -1.019977
        18.35836           0.709625E-3       -1.022624           0.541984E-3       -1.019868
        18.37838           0.701182E-3       -1.022483           0.536455E-3       -1.019760
        18.39840           0.692895E-3       -1.022344           0.531013E-3       -1.019654
        18.41842           0.684757E-3       -1.022206           0.525656E-3       -1.019548
        18.43844           0.676766E-3       -1.022070           0.520383E-3       -1.019444
        18.45846           0.668919E-3       -1.021936           0.515191E-3       -1.019340
        18.47848           0.661210E-3       -1.021803           0.510078E-3       -1.019237
        18.49850           0.653638E-3       -1.021671           0.505044E-3       -1.019136
        18.51852           0.646199E-3       -1.021541           0.500086E-3       -1.019035
        18.53854           0.638889E-3       -1.021413           0.495203E-3       -1.018936
        18.55856           0.631707E-3       -1.021286           0.490393E-3       -1.018837
        18.57858           0.624648E-3       -1.021161           0.485655E-3       -1.018740
        18.59860           0.617709E-3       -1.021036           0.480987E-3       -1.018643
        18.61862           0.610889E-3       -1.020914           0.476388E-3       -1.018547
        18.63864           0.604184E-3       -1.020792           0.471857E-3       -1.018453
        18.65866           0.597592E-3       -1.020672           0.467392E-3       -1.018359
        18.67868           0.591110E-3       -1.020553           0.462991E-3       -1.018266
        18.69870           0.584735E-3       -1.020436           0.458654E-3       -1.018174
        18.71872           0.578466E-3       -1.020319           0.454379E-3       -1.018082
        18.73874           0.572299E-3       -1.020204           0.450165E-3       -1.017992
        18.75876           0.566232E-3       -1.020091           0.446011E-3       -1.017902
        18.77878           0.560265E-3       -1.019978           0.441916E-3       -1.017813
        18.79880           0.554392E-3       -1.019867           0.437878E-3       -1.017725
        18.81882           0.548615E-3       -1.019756           0.433896E-3       -1.017638
        18.83884           0.542929E-3       -1.019647           0.429970E-3       -1.017552
        18.85886           0.537333E-3       -1.019539           0.426099E-3       -1.017466
        18.87888           0.531825E-3       -1.019432           0.422280E-3       -1.017382
        18.89890           0.526403E-3       -1.019327           0.418514E-3       -1.017297
        18.91892           0.521066E-3       -1.019222           0.414799E-3       -1.017214
        18.93894           0.515811E-3       -1.019118           0.411134E-3       -1.017131
        18.95896           0.510637E-3       -1.019016           0.407519E-3       -1.017050
        18.97898           0.505542E-3       -1.018914           0.403952E-3       -1.016968
        18.99900           0.500525E-3       -1.018813           0.400433E-3       -1.016888
        19.01902           0.495583E-3       -1.018714           0.396961E-3       -1.016808
        19.03904           0.490716E-3       -1.018615           0.393534E-3       -1.016729
        19.05906           0.485921E-3       -1.018518           0.390153E-3       -1.016651
        19.07908           0.481198E-3       -1.018421           0.386816E-3       -1.016573
        19.09910           0.476545E-3       -1.018325           0.383522E-3       -1.016496
        19.11912           0.471961E-3       -1.018230           0.380271E-3       -1.016420
        19.13914           0.467443E-3       -1.018137           0.377062E-3       -1.016344
        19.15916           0.462991E-3       -1.018043           0.373894E-3       -1.016269
        19.17918           0.458604E-3       -1.017951           0.370766E-3       -1.016194
        19.19920           0.454280E-3       -1.017860           0.367679E-3       -1.016121
        19.21922           0.450018E-3       -1.017770           0.364630E-3       -1.016047
        19.23924           0.445816E-3       -1.017680           0.361620E-3       -1.015975
        19.25926           0.441675E-3       -1.017591           0.358648E-3       -1.015903
        19.27928           0.437592E-3       -1.017503           0.355712E-3       -1.015831
        19.29930           0.433565E-3       -1.017416           0.352813E-3       -1.015760
        19.31932           0.429596E-3       -1.017330           0.349950E-3       -1.015690
        19.33934           0.425681E-3       -1.017244           0.347122E-3       -1.015620
        19.35936           0.421821E-3       -1.017160           0.344329E-3       -1.015551
        19.37938           0.418014E-3       -1.017076           0.341570E-3       -1.015483
        19.39940           0.414259E-3       -1.016992           0.338844E-3       -1.015414
        19.41942           0.410555E-3       -1.016910           0.336152E-3       -1.015347
        19.43944           0.406901E-3       -1.016828           0.333492E-3       -1.015280
        19.45946           0.403297E-3       -1.016747           0.330863E-3       -1.015214
        19.47948           0.399741E-3       -1.016667           0.328266E-3       -1.015148
        19.49950           0.396233E-3       -1.016587           0.325700E-3       -1.015082
        19.51952           0.392771E-3       -1.016508           0.323164E-3       -1.015017
        19.53954           0.389355E-3       -1.016430           0.320658E-3       -1.014953
        19.55956           0.385984E-3       -1.016353           0.318181E-3       -1.014889
        19.57958           0.382657E-3       -1.016276           0.315734E-3       -1.014826
        19.59960           0.379374E-3       -1.016200           0.313315E-3       -1.014763
        19.61962           0.376133E-3       -1.016124           0.310923E-3       -1.014700
        19.63964           0.372934E-3       -1.016049           0.308560E-3       -1.014638
        19.65966           0.369776E-3       -1.015975           0.306223E-3       -1.014577
        19.67968           0.366659E-3       -1.015901           0.303913E-3       -1.014516
        19.69970           0.363581E-3       -1.015828           0.301630E-3       -1.014455
        19.71972           0.360543E-3       -1.015756           0.299372E-3       -1.014395
        19.73974           0.357543E-3       -1.015684           0.297140E-3       -1.014336
        19.75976           0.354580E-3       -1.015613           0.294933E-3       -1.014276
        19.77978           0.351655E-3       -1.015542           0.292751E-3       -1.014217
        19.79980           0.348766E-3       -1.015472           0.290593E-3       -1.014159
        19.81982           0.345913E-3       -1.015403           0.288459E-3       -1.014101
        19.83984           0.343095E-3       -1.015334           0.286348E-3       -1.014044
        19.85986           0.340312E-3       -1.015265           0.284261E-3       -1.013987
        19.87988           0.337563E-3       -1.015197           0.282197E-3       -1.013930
        19.89990           0.334847E-3       -1.015130           0.280155E-3       -1.013874
        19.91992           0.332165E-3       -1.015064           0.278136E-3       -1.013818
        19.93994           0.329515E-3       -1.014997           0.276138E-3       -1.013762
        19.95996           0.326896E-3       -1.014932           0.274162E-3       -1.013707
        19.97998           0.324309E-3       -1.014866           0.272207E-3       -1.013653
        20.00000           0.321753E-3       -1.014802           0.270273E-3       -1.013598
# 
# 10/30/2023 at 17:43 yambo_rt @ unimi-XPS-8930 [start]
# 10/30/2023 at 17:43                           [end]
#
# .-Input file  yambo.in_generated
# | optics                           # [R] Linear Response optical properties
# | bss                              # [R] BSE solver
# | bse                              # [R][BSE] Bethe Salpeter Equation.
# | tddft                            # [R][K] Use TDDFT kernel
# | BoseTemp= 0.000000         eV    # Bosonic Temperature
# | BS_nCPU_LinAlg_INV= 1            # [PARALLEL] CPUs for Linear Algebra (if -1 it is automatically set)
# | BS_nCPU_LinAlg_DIAGO= 1          # [PARALLEL] CPUs for Linear Algebra (if -1 it is automatically set)
# | X_Threads= 1                     # [OPENMP/X] Number of threads for response functions
# | DIP_Threads= 1                   # [OPENMP/X] Number of threads for dipoles
# | K_Threads= 1                     # [OPENMP/BSK] Number of threads for response functions
# | BSKmod= "ALDA"                   # [BSE] IP/Hartree/HF/ALDA/SEX/BSfxc
# | BSEmod= "coupling"               # [BSE] resonant/retarded/coupling
# | BSSmod= "d"                      # [BSS] (h)aydock/(d)iagonalization/(s)lepc/(i)nversion/(t)ddft`
# | DipComputed= "R V P"             # [DIP] [default R P V; extra P2 Spin Orb]
# | BSENGexx=  4945            RL    # [BSK] Exchange components
# | FxcLibxc                       # [BSK] force computing Fxc via libxc
# | % BSEQptR
# |  1 | 1 |                             # [BSK] Transferred momenta range
# | %
# | % BSEBands
# |   1 | 10 |                           # [BSK] Bands range
# | %
# | % BEnRange
# |   0.00000 | 20.00000 |         eV    # [BSS] Energy range
# | %
# | % BDmRange
# |  0.100000 | 0.100000 |         eV    # [BSS] Damping range
# | %
# | BEnSteps= 1000                   # [BSS] Energy steps
# | % BLongDir
# |  1.000000 | 0.000000 | 0.000000 |        # [BSS] [cc] Electric Field versor
# | %
# | BSEprop= " abs jdos"             # [BSS] Can be any among abs/jdos/kerr/asymm/anHAll/magn/dich/photolum/esrt
# | BSEdips= "none"                  # [BSS] Can be "trace/none" or "xy/xz/yz" to define off-diagonal rotation plane
# | #WRbsWF                        # [BSS] Write to disk excitonic the WFs
