#                                                           
#  **    **    **     ****     ****  ******     *******     
# //**  **    ****   /**/**   **/** /*////**   **/////**    
#  //****    **//**  /**//** ** /** /*   /**  **     //**   
#   //**    **  //** /** //***  /** /******  /**      /**   
#    /**   **********/**  //*   /** /*//// **/**      /**   
#    /**  /**//////**/**   /    /** /*    /**//**     **    
#    /**  /**     /**/**        /** /*******  //*******     
#    //   //      // //         //  ///////    ///////      
#                                                           
#        Version 4.2.0 Revision 14456 Hash cc1a9b3          
#                  MPI+SLK+OpenMP Build                     
#                http://www.yambo-code.org                  
#
# Joint density of states @ Q(1) [q->0 direction] :0.1000E-4  0.000     0.000   
#
# - Energies      are Teter 93(XC)
# - The Green`s function is Retarded -
#
#   BSK|Identifier              :6934
#      |Dimension               :9
#      |Bands                   :1 - 10
#      |Exchange           [res]: yes
#      |Correlation        [res]: no
#      |Kernel`s coupling       : yes
#      |Exchange           [cpl]: yes
#      |Correlation        [cpl]: no
#      |W interaction is bare   : no
#      |ALDA kernel in R-space  : no
#      |RL vectors    [exchange]:39127
#      |E/h energy range    [ev]:-1.000000 - -1.000000
#      |Coupling range     [o/o]: 100.0000 -  100.0000
#
#    E/ev[1]      jdos-Im[2]   jdos-Re[3]   jdoso-Im[4]  jdoso-Re[5]  jdos`-Im[6]  jdos`-Re[7]
#
    6.000       0.2760E-2    0.7537E-1    0.3555E-2    0.1427   
    6.020       0.2788E-2    0.7593E-1    0.3607E-2    0.1434   
    6.040       0.2816E-2    0.7649E-1    0.3661E-2    0.1441   
    6.060       0.2845E-2    0.7705E-1    0.3715E-2    0.1449   
    6.080       0.2874E-2    0.7763E-1    0.3771E-2    0.1456   
    6.100       0.2904E-2    0.7820E-1    0.3828E-2    0.1464   
    6.120       0.2934E-2    0.7879E-1    0.3886E-2    0.1472   
    6.140       0.2965E-2    0.7938E-1    0.3946E-2    0.1479   
    6.160       0.2996E-2    0.7997E-1    0.4007E-2    0.1487   
    6.180       0.3028E-2    0.8058E-1    0.4070E-2    0.1495   
    6.200       0.3060E-2    0.8119E-1    0.4134E-2    0.1504   
    6.220       0.3093E-2    0.8180E-1    0.4200E-2    0.1512   
    6.240       0.3126E-2    0.8242E-1    0.4267E-2    0.1520   
    6.261       0.3161E-2    0.8305E-1    0.4337E-2    0.1529   
    6.281       0.3195E-2    0.8369E-1    0.4408E-2    0.1538   
    6.301       0.3231E-2    0.8433E-1    0.4481E-2    0.1547   
    6.321       0.3267E-2    0.8498E-1    0.4556E-2    0.1556   
    6.341       0.3303E-2    0.8564E-1    0.4632E-2    0.1565   
    6.361       0.3341E-2    0.8630E-1    0.4711E-2    0.1574   
    6.381       0.3379E-2    0.8698E-1    0.4793E-2    0.1584   
    6.401       0.3418E-2    0.8765E-1    0.4876E-2    0.1593   
    6.421       0.3457E-2    0.8834E-1    0.4962E-2    0.1603   
    6.441       0.3497E-2    0.8904E-1    0.5050E-2    0.1613   
    6.461       0.3538E-2    0.8974E-1    0.5141E-2    0.1623   
    6.481       0.3580E-2    0.9045E-1    0.5235E-2    0.1634   
    6.501       0.3623E-2    0.9117E-1    0.5331E-2    0.1644   
    6.521       0.3666E-2    0.9190E-1    0.5430E-2    0.1655   
    6.541       0.3711E-2    0.9264E-1    0.5533E-2    0.1666   
    6.561       0.3756E-2    0.9339E-1    0.5638E-2    0.1677   
    6.581       0.3802E-2    0.9414E-1    0.5747E-2    0.1688   
    6.601       0.3849E-2    0.9491E-1    0.5860E-2    0.1700   
    6.621       0.3897E-2    0.9568E-1    0.5976E-2    0.1712   
    6.641       0.3946E-2    0.9647E-1    0.6096E-2    0.1724   
    6.661       0.3996E-2    0.9726E-1    0.6220E-2    0.1736   
    6.681       0.4047E-2    0.9806E-1    0.6349E-2    0.1748   
    6.701       0.4099E-2    0.9888E-1    0.6482E-2    0.1761   
    6.721       0.4152E-2    0.9970E-1    0.6619E-2    0.1774   
    6.741       0.4207E-2    0.1005       0.6762E-2    0.1788   
    6.762       0.4262E-2    0.1014       0.6910E-2    0.1801   
    6.782       0.4319E-2    0.1022       0.7064E-2    0.1815   
    6.802       0.4377E-2    0.1031       0.7224E-2    0.1829   
    6.822       0.4436E-2    0.1040       0.7389E-2    0.1844   
    6.842       0.4496E-2    0.1049       0.7562E-2    0.1859   
    6.862       0.4558E-2    0.1058       0.7741E-2    0.1874   
    6.882       0.4621E-2    0.1067       0.7929E-2    0.1889   
    6.902       0.4686E-2    0.1076       0.8123E-2    0.1905   
    6.922       0.4752E-2    0.1086       0.8327E-2    0.1922   
    6.942       0.4820E-2    0.1095       0.8539E-2    0.1939   
    6.962       0.4889E-2    0.1105       0.8762E-2    0.1956   
    6.982       0.4960E-2    0.1115       0.8994E-2    0.1973   
    7.002       0.5032E-2    0.1125       0.9237E-2    0.1991   
    7.022       0.5106E-2    0.1135       0.9493E-2    0.2010   
    7.042       0.5183E-2    0.1145       0.9761E-2    0.2029   
    7.062       0.5260E-2    0.1156       0.1004E-1    0.2049   
    7.082       0.5340E-2    0.1166       0.1034E-1    0.2069   
    7.102       0.5422E-2    0.1177       0.1065E-1    0.2089   
    7.122       0.5506E-2    0.1188       0.1098E-1    0.2111   
    7.142       0.5591E-2    0.1199       0.1133E-1    0.2133   
    7.162       0.5680E-2    0.1210       0.1170E-1    0.2156   
    7.182       0.5770E-2    0.1222       0.1209E-1    0.2179   
    7.202       0.5862E-2    0.1233       0.1250E-1    0.2203   
    7.222       0.5958E-2    0.1245       0.1294E-1    0.2228   
    7.242       0.6055E-2    0.1257       0.1341E-1    0.2254   
    7.263       0.6155E-2    0.1269       0.1391E-1    0.2281   
    7.283       0.6258E-2    0.1282       0.1445E-1    0.2309   
    7.303       0.6364E-2    0.1294       0.1502E-1    0.2338   
    7.323       0.6473E-2    0.1307       0.1564E-1    0.2368   
    7.343       0.6584E-2    0.1320       0.1630E-1    0.2399   
    7.363       0.6699E-2    0.1333       0.1702E-1    0.2431   
    7.383       0.6817E-2    0.1347       0.1780E-1    0.2465   
    7.403       0.6938E-2    0.1361       0.1864E-1    0.2500   
    7.423       0.7063E-2    0.1375       0.1955E-1    0.2537   
    7.443       0.7192E-2    0.1389       0.2055E-1    0.2576   
    7.463       0.7325E-2    0.1403       0.2165E-1    0.2616   
    7.483       0.7461E-2    0.1418       0.2285E-1    0.2659   
      7.5030       0.0076       0.1433       0.0242       0.2704
      7.5230       0.0077       0.1448       0.0257       0.2751
      7.5431       0.0079       0.1464       0.0273       0.2801
      7.5631       0.0081       0.1480       0.0291       0.2853
      7.5832       0.0082       0.1496       0.0312       0.2909
      7.6032       0.0084       0.1513       0.0335       0.2969
      7.6232       0.0085       0.1530       0.0362       0.3033
      7.6433       0.0087       0.1547       0.0392       0.3100
      7.6633       0.0089       0.1564       0.0427       0.3173
      7.6834       0.0091       0.1582       0.0467       0.3251
      7.7034       0.0093       0.1600       0.0514       0.3335
      7.7234       0.0095       0.1619       0.0570       0.3426
      7.7435       0.0097       0.1638       0.0636       0.3523
      7.7635       0.0099       0.1658       0.0716       0.3629
     7.78357      0.01013      0.16777      0.08119      0.37420
     7.80361      0.01036      0.16981      0.09297      0.38632
     7.82365      0.01061      0.17190      0.10754      0.39913
     7.84369      0.01086      0.17403      0.12574      0.41236
     7.86373      0.01112      0.17621      0.14863      0.42545
     7.88377      0.01139      0.17845      0.17755      0.43727
     7.90381      0.01167      0.18074      0.21392      0.44576
     7.92385      0.01196      0.18309      0.25881      0.44741
     7.94389      0.01227      0.18550      0.31179      0.43680
     7.96393      0.01259      0.18796      0.36874      0.40710
     7.98397      0.01292      0.19050      0.41961      0.35309
     8.00401      0.01327      0.19309      0.44954      0.27721
     8.02405      0.01364      0.19576      0.44699      0.19342
     8.04409      0.01402      0.19850      0.41323      0.12087
     8.06413      0.01442      0.20132      0.36122      0.07162
     8.08417      0.01484      0.20422      0.30537      0.04631
     8.10421      0.01528      0.20720      0.25460      0.03906
     8.12425      0.01574      0.21027      0.21220      0.04316
     8.14429      0.01623      0.21343      0.17822      0.05356
     8.16433      0.01674      0.21669      0.15147      0.06702
     8.18437      0.01728      0.22004      0.13052      0.08169
     8.20441      0.01786      0.22351      0.11411      0.09659
     8.22445      0.01846      0.22709      0.10119      0.11120
     8.24449      0.01910      0.23079      0.09098      0.12532
     8.26453      0.01978      0.23462      0.08290      0.13886
     8.28457      0.02051      0.23858      0.07648      0.15184
     8.30461      0.02128      0.24268      0.07141      0.16431
     8.32465      0.02210      0.24693      0.06742      0.17634
     8.34469      0.02298      0.25135      0.06433      0.18800
     8.36473      0.02392      0.25593      0.06200      0.19936
     8.38477      0.02494      0.26070      0.06032      0.21049
     8.40481      0.02603      0.26567      0.05922      0.22148
     8.42485      0.02720      0.27084      0.05864      0.23239
     8.44489      0.02848      0.27624      0.05855      0.24328
     8.46493      0.02986      0.28188      0.05892      0.25423
     8.48497      0.03137      0.28779      0.05976      0.26529
     8.50501      0.03302      0.29398      0.06106      0.27653
     8.52505      0.03483      0.30047      0.06287      0.28802
     8.54509      0.03683      0.30730      0.06522      0.29983
     8.56513      0.03904      0.31450      0.06817      0.31202
     8.58517      0.04150      0.32209      0.07180      0.32468
     8.60521      0.04425      0.33011      0.07624      0.33788
     8.62525      0.04734      0.33861      0.08162      0.35170
     8.64529      0.05084      0.34764      0.08816      0.36622
     8.66533      0.05482      0.35724      0.09612      0.38152
     8.68537      0.05939      0.36748      0.10585      0.39764
     8.70541      0.06468      0.37841      0.11783      0.41459
     8.72545      0.07085      0.39011      0.13268      0.43229
     8.74549      0.07811      0.40264      0.15124      0.45051
     8.76553      0.08673      0.41606      0.17456      0.46869
     8.78557      0.09709      0.43042      0.20398      0.48575
    8.805612     0.109663     0.445700     0.240920     0.499673
    8.825651     0.125086     0.461821     0.286487     0.507005
    8.845691     0.144202     0.478523     0.340293     0.502387
    8.865731     0.168094     0.495240     0.398346     0.479021
    8.885772     0.198090     0.510855     0.450750     0.431619
    8.905812     0.235625     0.523311     0.482695     0.362414
    8.925852     0.281776     0.529086     0.482450     0.285167
    8.945892     0.336079     0.522756     0.450994     0.219068
    8.965932     0.394373     0.497499     0.401145     0.176467
    8.985972     0.446558     0.448167     0.347400     0.158249
    9.006012     0.477756     0.377341     0.298856     0.158652
    9.026052     0.476532     0.299122     0.258923     0.170996
    9.046092     0.444351     0.232666     0.227742     0.190207
    9.066133     0.394260     0.189934     0.204174     0.213089
    9.086172     0.340651     0.171486     0.186843     0.237820
    9.106213     0.292401     0.171447     0.174527     0.263461
    9.126252     0.252773     0.183159     0.166270     0.289574
    9.146293     0.221827     0.201613     0.161365     0.316022
    9.166332     0.198403     0.223657     0.159322     0.342822
    9.186373     0.181115     0.247507     0.159826     0.370090
    9.206413     0.168741     0.272231     0.162702     0.397990
    9.226453     0.160316     0.297402     0.167905     0.426722
    9.246493     0.155127     0.322879     0.175502     0.456506
    9.266534     0.152664     0.348677     0.185679     0.487574
    9.286573     0.152585     0.374902     0.198748     0.520164
    9.306613     0.154682     0.401713     0.215175     0.554513
    9.326653     0.158856     0.429302     0.235613     0.590832
    9.346694     0.165106     0.457882     0.260954     0.629274
    9.366734     0.173522     0.487684     0.292403     0.669860
    9.386773     0.184287     0.518959     0.331568     0.712367
    9.406814     0.197691     0.551974     0.380559     0.756095
    9.426854     0.214141     0.587007     0.442038     0.799477
    9.446894     0.234195     0.624344     0.519109     0.839436
    9.466934     0.258604     0.664270     0.614746     0.870423
    9.486975     0.288369     0.707036     0.730128     0.883347
    9.507014     0.324816     0.752804     0.861149     0.865496
    9.527054     0.369703     0.801559     0.993542     0.804152
    9.547094     0.425349     0.852923     1.101321     0.696662
    9.567135     0.494737     0.905838     1.157443     0.561961
    9.587174     0.581561     0.958025     1.154839     0.436803
    9.607214     0.689980     1.005149     1.114481     0.352394
    9.627254     0.823658     1.039709     1.069314     0.316677
    9.647295     0.983453     1.050253     1.045261     0.317942
    9.667335     1.163647     1.022589     1.055343     0.336575
    9.687374     1.348986     0.945197     1.101696     0.352270
    9.707415     1.517982     0.817511     1.177584     0.347273
    9.727455     1.654337     0.652215     1.269134     0.310098
    9.747495     1.755768     0.464494     1.360822     0.238716
    9.767535     1.826928     0.257921     1.442338     0.136724
    9.788        1.861       0.2633E-1     1.506       0.5453E-2
    9.807616     1.836643    -0.225463     1.539275    -0.153022
    9.827656     1.734431    -0.467353     1.526532    -0.324326
    9.847695     1.564627    -0.658544     1.467229    -0.484466
    9.867736     1.362218    -0.775519     1.376531    -0.618084
    9.887776     1.164056    -0.821638     1.268815    -0.725280
    9.907816     0.992684    -0.815624     1.147976    -0.809150
    9.927855     0.855960    -0.777660     1.015701    -0.865863
    9.947896     0.753411    -0.723161     0.880540    -0.890177
    9.967936     0.681629    -0.662469     0.754593    -0.883752
    9.987975     0.636968    -0.602639     0.646160    -0.854494
    10.00802      0.61630     -0.54945      0.55780     -0.81140
    10.02806      0.61639     -0.50900      0.48837     -0.76144
    10.04810      0.63195     -0.48834      0.43541     -0.70901
    10.06814      0.65308     -0.49390      0.39643     -0.65664
    10.08818      0.66448     -0.52649      0.36950     -0.60566
    10.10822      0.65102     -0.57578      0.35340     -0.55686
    10.12826      0.60810     -0.62274      0.34760     -0.51092
    10.14830      0.54496     -0.65149      0.35218     -0.46880
    10.16834      0.47614     -0.65744      0.36766     -0.43229
    10.18838      0.41239     -0.64473      0.39448     -0.40450
    10.20842      0.35842     -0.61997      0.43193     -0.39042
    10.22846      0.31493     -0.58867      0.47604     -0.39661
    10.24850      0.28089     -0.55443      0.51718     -0.42857
    10.26854      0.25487     -0.51932      0.54051     -0.48494
    10.28858      0.23554     -0.48441      0.53328     -0.55287
    10.30862      0.22193     -0.45016      0.49485     -0.61305
    10.32866      0.21338     -0.41674      0.43713     -0.65198
    10.34870      0.20958     -0.38418      0.37475     -0.66774
    10.36874      0.21054     -0.35250      0.31729     -0.66566
    10.38878      0.21657     -0.32179      0.26851     -0.65248
    10.40882      0.22834     -0.29238      0.22866     -0.63343
    10.42886      0.24682     -0.26506      0.19656     -0.61187
    10.44890      0.27323     -0.24141      0.17073     -0.58973
    10.46894      0.30869     -0.22427      0.14983     -0.56803
    10.48898      0.35334     -0.21829      0.13276     -0.54729
    10.50902      0.40454     -0.22991      0.11867     -0.52771
    10.52906      0.45435     -0.26540      0.10691     -0.50935
    10.54910      0.48896     -0.32565      0.09700     -0.49219
    10.56914      0.49434     -0.40053      0.08855     -0.47615
    10.58918      0.46669     -0.47124      0.08129     -0.46117
    10.60922      0.41585     -0.52212      0.07500     -0.44714
    10.62926      0.35684     -0.54879      0.06949     -0.43400
    10.64930      0.30075     -0.55560      0.06465     -0.42165
    10.66934      0.25256     -0.54939      0.06036     -0.41004
    10.68938      0.21313     -0.53587      0.05653     -0.39910
    10.70942      0.18153     -0.51883      0.05310     -0.38877
    10.72946      0.15632     -0.50051      0.05001     -0.37900
    10.74950      0.13613     -0.48215      0.04721     -0.36974
    10.76954      0.11985     -0.46437      0.04467     -0.36095
    10.78958      0.10657     -0.44746      0.04235     -0.35260
    10.80962      0.09564     -0.43151      0.04022     -0.34464
    10.82966      0.08655     -0.41655      0.03827     -0.33706
    10.84970      0.07891     -0.40251      0.03647     -0.32982
    10.86974      0.07242     -0.38935      0.03481     -0.32290
    10.88978      0.06688     -0.37699      0.03327     -0.31628
    10.90982      0.06209     -0.36536      0.03183     -0.30994
    10.92986      0.05794     -0.35439      0.03050     -0.30385
    10.94990      0.05431     -0.34401      0.02926     -0.29801
    10.96994      0.05112     -0.33418      0.02809     -0.29240
    10.98998      0.04831     -0.32483      0.02700     -0.28699
    11.01002      0.04581     -0.31593      0.02598     -0.28179
    11.03006      0.04359     -0.30742      0.02502     -0.27678
    11.05010      0.04160     -0.29928      0.02412     -0.27195
    11.07014      0.03983     -0.29146      0.02326     -0.26729
    11.09018      0.03824     -0.28395      0.02246     -0.26279
    11.11022      0.03681     -0.27670      0.02170     -0.25843
    11.13026      0.03553     -0.26969      0.02098     -0.25422
    11.15030      0.03438     -0.26290      0.02029     -0.25015
    11.17034      0.03336     -0.25632      0.01964     -0.24621
    11.19038      0.03244     -0.24991      0.01903     -0.24239
    11.21042      0.03163     -0.24366      0.01844     -0.23868
    11.23046      0.03092     -0.23755      0.01788     -0.23509
    11.25050      0.03030     -0.23157      0.01735     -0.23160
    11.27054      0.02976     -0.22570      0.01684     -0.22821
    11.29058      0.02931     -0.21993      0.01636     -0.22492
    11.31062      0.02894     -0.21423      0.01590     -0.22173
    11.33066      0.02866     -0.20860      0.01546     -0.21862
    11.35070      0.02845     -0.20302      0.01503     -0.21560
    11.37074      0.02833     -0.19747      0.01463     -0.21265
    11.39078      0.02830     -0.19194      0.01424     -0.20979
    11.41082      0.02835     -0.18642      0.01387     -0.20700
    11.43086      0.02849     -0.18089      0.01351     -0.20428
    11.45090      0.02873     -0.17534      0.01317     -0.20163
    11.47094      0.02908     -0.16973      0.01284     -0.19905
    11.49098      0.02955     -0.16407      0.01252     -0.19653
    11.51102      0.03014     -0.15832      0.01221     -0.19407
    11.53106      0.03087     -0.15247      0.01192     -0.19167
    11.55110      0.03176     -0.14649      0.01164     -0.18933
    11.57       0.3283E-1    -.1404       0.1137E-1    -.1870   
    11.59       0.3411E-1    -.1340       0.1110E-1    -.1848   
    11.61       0.3562E-1    -.1275       0.1085E-1    -.1826   
    11.63       0.3741E-1    -.1207       0.1061E-1    -.1805   
    11.65       0.3952E-1    -.1137       0.1037E-1    -.1784   
    11.67       0.4202E-1    -.1063       0.1014E-1    -.1764   
    11.69       0.4498E-1    -.9849E-1    0.9920E-2    -.1744   
    11.71       0.4851E-1    -.9028E-1    0.9707E-2    -.1724   
    11.73       0.5271E-1    -.8158E-1    0.9501E-2    -.1705   
    11.75       0.5776E-1    -.7232E-1    0.9302E-2    -.1686   
    11.77       0.6386E-1    -.6246E-1    0.9109E-2    -.1668   
    11.79       0.7128E-1    -.5192E-1    0.8922E-2    -.1650   
    11.81       0.8037E-1    -.4069E-1    0.8740E-2    -.1632   
    11.83       0.9162E-1    -.2877E-1    0.8565E-2    -.1615   
    11.85       0.1057       -.1626E-1    0.8395E-2    -.1598   
    11.87       0.1233       -.3423E-2    0.8230E-2    -.1582   
    11.89       0.1456       0.9168E-2    0.8070E-2    -.1565   
    11.91       0.1740       0.2040E-1    0.7914E-2    -.1549   
    11.93       0.2097       0.2822E-1    0.7763E-2    -.1534   
    11.95       0.2540       0.2912E-1    0.7617E-2    -.1518   
    11.97       0.3064       0.1770E-1    0.7475E-2    -.1503   
    11.99       0.3627       -.1288E-1    0.7336E-2    -.1489   
    12.01       0.4131       -.6786E-1    0.7202E-2    -.1474   
    12.03       0.4427       -.1449       0.7071E-2    -.1460   
    12.05       0.4397       -.2301       0.6944E-2    -.1446   
    12.07       0.4055       -.3043       0.6820E-2    -.1432   
    12.09       0.3529       -.3553       0.6700E-2    -.1419   
    12.11       0.2964       -.3826       0.6583E-2    -.1405   
    12.13       0.2449       -.3918       0.6469E-2    -.1392   
    12.15       0.2016       -.3898       0.6358E-2    -.1379   
    12.17       0.1668       -.3817       0.6250E-2    -.1367   
    12.19       0.1392       -.3706       0.6145E-2    -.1355   
    12.21       0.1174       -.3584       0.6042E-2    -.1342   
    12.23       0.1001       -.3462       0.5942E-2    -.1330   
    12.25       0.8618E-1    -.3344       0.5844E-2    -.1319   
    12.27       0.7496E-1    -.3233       0.5749E-2    -.1307   
    12.29       0.6581E-1    -.3130       0.5656E-2    -.1296   
    12.31       0.5826E-1    -.3034       0.5566E-2    -.1284   
    12.33       0.5198E-1    -.2946       0.5477E-2    -.1273   
    12.35       0.4671E-1    -.2864       0.5391E-2    -.1263   
    12.37       0.4224E-1    -.2789       0.5307E-2    -.1252   
    12.39       0.3842E-1    -.2719       0.5224E-2    -.1241   
    12.41       0.3514E-1    -.2654       0.5144E-2    -.1231   
    12.43       0.3230E-1    -.2594       0.5065E-2    -.1221   
    12.45       0.2982E-1    -.2538       0.4989E-2    -.1211   
    12.47       0.2764E-1    -.2485       0.4914E-2    -.1201   
    12.49       0.2572E-1    -.2436       0.4840E-2    -.1191   
    12.51       0.2401E-1    -.2390       0.4769E-2    -.1182   
    12.53       0.2250E-1    -.2346       0.4699E-2    -.1172   
    12.55       0.2114E-1    -.2305       0.4630E-2    -.1163   
    12.57       0.1991E-1    -.2266       0.4563E-2    -.1154   
    12.59       0.1881E-1    -.2229       0.4498E-2    -.1144   
    12.61       0.1781E-1    -.2194       0.4434E-2    -.1136   
    12.63       0.1690E-1    -.2161       0.4371E-2    -.1127   
    12.65       0.1607E-1    -.2129       0.4309E-2    -.1118   
    12.67       0.1531E-1    -.2099       0.4249E-2    -.1110   
    12.69       0.1461E-1    -.2070       0.4190E-2    -.1101   
    12.71       0.1397E-1    -.2042       0.4133E-2    -.1093   
    12.73       0.1338E-1    -.2016       0.4076E-2    -.1085   
    12.75       0.1283E-1    -.1990       0.4021E-2    -.1076   
    12.77       0.1232E-1    -.1966       0.3967E-2    -.1069   
    12.79       0.1185E-1    -.1942       0.3914E-2    -.1061   
    12.81       0.1141E-1    -.1919       0.3862E-2    -.1053   
    12.83       0.1100E-1    -.1897       0.3811E-2    -.1045   
    12.85       0.1061E-1    -.1876       0.3761E-2    -.1038   
    12.87       0.1025E-1    -.1856       0.3712E-2    -.1030   
    12.89       0.9910E-2    -.1836       0.3663E-2    -.1023   
    12.91       0.9591E-2    -.1817       0.3616E-2    -.1015   
    12.93       0.9291E-2    -.1798       0.3570E-2    -.1008   
    12.95       0.9008E-2    -.1780       0.3525E-2    -.1001   
    12.97       0.8740E-2    -.1762       0.3480E-2    -.9942E-1
    12.99       0.8486E-2    -.1745       0.3437E-2    -.9873E-1
    13.01       0.8246E-2    -.1729       0.3394E-2    -.9805E-1
    13.03       0.8018E-2    -.1713       0.3352E-2    -.9737E-1
    13.05       0.7802E-2    -.1697       0.3310E-2    -.9670E-1
    13.07       0.7596E-2    -.1682       0.3270E-2    -.9605E-1
    13.09       0.7400E-2    -.1667       0.3230E-2    -.9540E-1
    13.11       0.7213E-2    -.1652       0.3191E-2    -.9475E-1
    13.13       0.7035E-2    -.1638       0.3153E-2    -.9412E-1
    13.15       0.6865E-2    -.1624       0.3115E-2    -.9349E-1
    13.17       0.6702E-2    -.1611       0.3078E-2    -.9287E-1
    13.19       0.6546E-2    -.1598       0.3042E-2    -.9226E-1
    13.21       0.6397E-2    -.1585       0.3006E-2    -.9166E-1
    13.23       0.6254E-2    -.1572       0.2971E-2    -.9106E-1
    13.25       0.6116E-2    -.1560       0.2936E-2    -.9047E-1
    13.27       0.5985E-2    -.1548       0.2903E-2    -.8988E-1
    13.29       0.5858E-2    -.1536       0.2869E-2    -.8931E-1
    13.31       0.5736E-2    -.1525       0.2837E-2    -.8874E-1
    13.33       0.5619E-2    -.1513       0.2804E-2    -.8817E-1
    13.35       0.5506E-2    -.1502       0.2773E-2    -.8761E-1
    13.37       0.5397E-2    -.1491       0.2742E-2    -.8706E-1
    13.39       0.5292E-2    -.1481       0.2711E-2    -.8652E-1
    13.41       0.5190E-2    -.1470       0.2681E-2    -.8598E-1
    13.43       0.5093E-2    -.1460       0.2651E-2    -.8544E-1
    13.45       0.4998E-2    -.1450       0.2622E-2    -.8492E-1
    13.47       0.4906E-2    -.1440       0.2594E-2    -.8439E-1
    13.49       0.4818E-2    -.1431       0.2565E-2    -.8388E-1
    13.52       0.4732E-2    -.1421       0.2538E-2    -.8337E-1
    13.54       0.4650E-2    -.1412       0.2510E-2    -.8286E-1
    13.56       0.4569E-2    -.1402       0.2484E-2    -.8236E-1
    13.58       0.4491E-2    -.1393       0.2457E-2    -.8187E-1
    13.60       0.4416E-2    -.1385       0.2431E-2    -.8138E-1
    13.62       0.4343E-2    -.1376       0.2406E-2    -.8089E-1
    13.64       0.4271E-2    -.1367       0.2380E-2    -.8042E-1
    13.66       0.4202E-2    -.1359       0.2356E-2    -.7994E-1
    13.68       0.4135E-2    -.1350       0.2331E-2    -.7947E-1
    13.70       0.4070E-2    -.1342       0.2307E-2    -.7901E-1
    13.72       0.4007E-2    -.1334       0.2283E-2    -.7855E-1
    13.74       0.3945E-2    -.1326       0.2260E-2    -.7809E-1
    13.76       0.3885E-2    -.1318       0.2237E-2    -.7764E-1
    13.78       0.3827E-2    -.1311       0.2215E-2    -.7720E-1
    13.80       0.3770E-2    -.1303       0.2192E-2    -.7676E-1
    13.82       0.3714E-2    -.1296       0.2170E-2    -.7632E-1
    13.84       0.3661E-2    -.1288       0.2149E-2    -.7589E-1
    13.86       0.3608E-2    -.1281       0.2127E-2    -.7546E-1
    13.88       0.3557E-2    -.1274       0.2106E-2    -.7504E-1
    13.90       0.3507E-2    -.1267       0.2086E-2    -.7462E-1
    13.92       0.3458E-2    -.1260       0.2065E-2    -.7420E-1
    13.94       0.3410E-2    -.1253       0.2045E-2    -.7379E-1
    13.96       0.3364E-2    -.1246       0.2025E-2    -.7338E-1
    13.98       0.3318E-2    -.1240       0.2006E-2    -.7298E-1
    14.00       0.3274E-2    -.1233       0.1987E-2    -.7258E-1
    14.02       0.3231E-2    -.1226       0.1968E-2    -.7219E-1
    14.04       0.3188E-2    -.1220       0.1949E-2    -.7179E-1
    14.06       0.3147E-2    -.1214       0.1930E-2    -.7140E-1
    14.08       0.3106E-2    -.1207       0.1912E-2    -.7102E-1
    14.10       0.3067E-2    -.1201       0.1894E-2    -.7064E-1
    14.12       0.3028E-2    -.1195       0.1877E-2    -.7026E-1
    14.14       0.2990E-2    -.1189       0.1859E-2    -.6989E-1
    14.16       0.2953E-2    -.1183       0.1842E-2    -.6952E-1
    14.18       0.2917E-2    -.1177       0.1825E-2    -.6915E-1
    14.20       0.2881E-2    -.1172       0.1808E-2    -.6879E-1
    14.22       0.2847E-2    -.1166       0.1792E-2    -.6843E-1
    14.24       0.2813E-2    -.1160       0.1775E-2    -.6807E-1
    14.26       0.2779E-2    -.1155       0.1759E-2    -.6772E-1
    14.28       0.2746E-2    -.1149       0.1744E-2    -.6736E-1
    14.30       0.2714E-2    -.1144       0.1728E-2    -.6702E-1
    14.32       0.2683E-2    -.1138       0.1712E-2    -.6667E-1
    14.34       0.2652E-2    -.1133       0.1697E-2    -.6633E-1
    14.36       0.2622E-2    -.1128       0.1682E-2    -.6599E-1
    14.38       0.2592E-2    -.1122       0.1667E-2    -.6566E-1
    14.40       0.2563E-2    -.1117       0.1653E-2    -.6533E-1
    14.42       0.2535E-2    -.1112       0.1638E-2    -.6500E-1
    14.44       0.2507E-2    -.1107       0.1624E-2    -.6467E-1
    14.46       0.2479E-2    -.1102       0.1610E-2    -.6435E-1
    14.48       0.2452E-2    -.1097       0.1596E-2    -.6403E-1
    14.50       0.2426E-2    -.1092       0.1582E-2    -.6371E-1
    14.52       0.2400E-2    -.1087       0.1569E-2    -.6339E-1
    14.54       0.2374E-2    -.1083       0.1555E-2    -.6308E-1
    14.56       0.2349E-2    -.1078       0.1542E-2    -.6277E-1
    14.58       0.2324E-2    -.1073       0.1529E-2    -.6246E-1
    14.60       0.2300E-2    -.1069       0.1516E-2    -.6216E-1
    14.62       0.2276E-2    -.1064       0.1503E-2    -.6185E-1
    14.64       0.2253E-2    -.1060       0.1491E-2    -.6155E-1
    14.66       0.2230E-2    -.1055       0.1478E-2    -.6126E-1
    14.68       0.2208E-2    -.1051       0.1466E-2    -.6096E-1
    14.70       0.2185E-2    -.1046       0.1454E-2    -.6067E-1
    14.72       0.2163E-2    -.1042       0.1442E-2    -.6038E-1
    14.74       0.2142E-2    -.1038       0.1430E-2    -.6009E-1
    14.76       0.2121E-2    -.1033       0.1418E-2    -.5981E-1
    14.78       0.2100E-2    -.1029       0.1407E-2    -.5952E-1
    14.80       0.2080E-2    -.1025       0.1395E-2    -.5924E-1
    14.82       0.2060E-2    -.1021       0.1384E-2    -.5897E-1
    14.84       0.2040E-2    -.1017       0.1373E-2    -.5869E-1
    14.86       0.2020E-2    -.1013       0.1362E-2    -.5842E-1
    14.88       0.2001E-2    -.1009       0.1351E-2    -.5814E-1
    14.90       0.1982E-2    -.1005       0.1340E-2    -.5788E-1
    14.92       0.1964E-2    -.1001       0.1330E-2    -.5761E-1
    14.94       0.1945E-2    -.9967E-1    0.1319E-2    -.5734E-1
    14.96       0.1927E-2    -.9928E-1    0.1309E-2    -.5708E-1
    14.98       0.1910E-2    -.9890E-1    0.1298E-2    -.5682E-1
    15.00       0.1892E-2    -.9852E-1    0.1288E-2    -.5656E-1
    15.02       0.1875E-2    -.9814E-1    0.1278E-2    -.5630E-1
    15.04       0.1858E-2    -.9777E-1    0.1268E-2    -.5605E-1
    15.06       0.1841E-2    -.9740E-1    0.1258E-2    -.5579E-1
    15.08       0.1825E-2    -.9703E-1    0.1249E-2    -.5554E-1
    15.10       0.1808E-2    -.9667E-1    0.1239E-2    -.5529E-1
    15.12       0.1793E-2    -.9630E-1    0.1230E-2    -.5505E-1
    15.14       0.1777E-2    -.9595E-1    0.1220E-2    -.5480E-1
    15.16       0.1761E-2    -.9559E-1    0.1211E-2    -.5456E-1
    15.18       0.1746E-2    -.9524E-1    0.1202E-2    -.5432E-1
    15.20       0.1731E-2    -.9489E-1    0.1193E-2    -.5408E-1
    15.22       0.1716E-2    -.9455E-1    0.1184E-2    -.5384E-1
    15.24       0.1701E-2    -.9421E-1    0.1175E-2    -.5360E-1
    15.26       0.1687E-2    -.9387E-1    0.1166E-2    -.5337E-1
    15.28       0.1673E-2    -.9353E-1    0.1158E-2    -.5314E-1
    15.30       0.1659E-2    -.9320E-1    0.1149E-2    -.5290E-1
    15.32       0.1645E-2    -.9287E-1    0.1140E-2    -.5268E-1
    15.34       0.1631E-2    -.9254E-1    0.1132E-2    -.5245E-1
    15.36       0.1617E-2    -.9221E-1    0.1124E-2    -.5222E-1
    15.38       0.1604E-2    -.9189E-1    0.1116E-2    -.5200E-1
    15.40       0.1591E-2    -.9157E-1    0.1107E-2    -.5178E-1
    15.42       0.1578E-2    -.9125E-1    0.1099E-2    -.5155E-1
    15.44       0.1565E-2    -.9094E-1    0.1091E-2    -.5133E-1
    15.46       0.1553E-2    -.9063E-1    0.1083E-2    -.5112E-1
    15.48       0.1540E-2    -.9032E-1    0.1076E-2    -.5090E-1
    15.50       0.1528E-2    -.9001E-1    0.1068E-2    -.5069E-1
    15.52       0.1516E-2    -.8971E-1    0.1060E-2    -.5047E-1
    15.54       0.1504E-2    -.8940E-1    0.1053E-2    -.5026E-1
    15.56       0.1492E-2    -.8910E-1    0.1045E-2    -.5005E-1
    15.58       0.1480E-2    -.8881E-1    0.1038E-2    -.4984E-1
    15.60       0.1469E-2    -.8851E-1    0.1031E-2    -.4964E-1
    15.62       0.1457E-2    -.8822E-1    0.1023E-2    -.4943E-1
    15.64       0.1446E-2    -.8793E-1    0.1016E-2    -.4923E-1
    15.66       0.1435E-2    -.8764E-1    0.1009E-2    -.4902E-1
    15.68       0.1424E-2    -.8735E-1    0.1002E-2    -.4882E-1
    15.70       0.1413E-2    -.8707E-1    0.9951E-3    -.4862E-1
    15.72       0.1402E-2    -.8679E-1    0.9882E-3    -.4842E-1
    15.74       0.1392E-2    -.8651E-1    0.9814E-3    -.4823E-1
    15.76       0.1381E-2    -.8623E-1    0.9746E-3    -.4803E-1
    15.78       0.1371E-2    -.8595E-1    0.9679E-3    -.4784E-1
    15.80       0.1361E-2    -.8568E-1    0.9613E-3    -.4764E-1
    15.82       0.1351E-2    -.8541E-1    0.9548E-3    -.4745E-1
    15.84       0.1341E-2    -.8514E-1    0.9483E-3    -.4726E-1
    15.86       0.1331E-2    -.8487E-1    0.9419E-3    -.4707E-1
    15.88       0.1321E-2    -.8461E-1    0.9355E-3    -.4688E-1
    15.90       0.1312E-2    -.8434E-1    0.9292E-3    -.4670E-1
    15.92       0.1302E-2    -.8408E-1    0.9230E-3    -.4651E-1
    15.94       0.1293E-2    -.8382E-1    0.9168E-3    -.4633E-1
    15.96       0.1284E-2    -.8356E-1    0.9107E-3    -.4614E-1
    15.98       0.1274E-2    -.8331E-1    0.9046E-3    -.4596E-1
    16.00       0.1265E-2    -.8305E-1    0.8986E-3    -.4578E-1
# 
# 04/14/2017 at 11:11 YAMBO_RT @ anomaly [start]
# 04/14/2017 at 11:11                    [end]
#  
# Timing   [Min/Max/Average]: 01s/01s/01s
#
# .-Input file : yambo.in
# | optics                       # [R OPT] Optics
# | bse                          # [R BSE] Bethe Salpeter Equation.
# | bsk                          # [R BSK] Bethe Salpeter Equation kernel
# | bss                          # [R BSS] Bethe Salpeter Equation solver
# | BoseTemp= 0.000000     eV    # Bosonic Temperature
# | X_Threads= 1                 # [OPENMP/X] Number of threads for response functions
# | DIP_Threads= 1               # [OPENMP/X] Number of threads for dipoles
# | K_Threads= 1                 # [OPENMP/BSK] Number of threads for response functions
# | BSEmod= "coupling"           # [BSE] resonant/retarded/coupling
# | BSKmod= "Hartree"            # [BSE] IP/Hartree/HF/ALDA/SEX/BSfxc
# | BSSmod= "d"                  # [BSS] (h)aydock/(d)iagonalization/(i)nversion/(t)ddft`
# | BSENGexx=  39127       RL    # [BSK] Exchange components
# | % BEnRange
# |   6.00000 | 16.00000 | eV    # [BSS] Energy range
# | %
# | % BDmRange
# |   0.10000 |  0.10000 | eV    # [BSS] Damping range
# | %
# | BEnSteps=  500               # [BSS] Energy steps
# | % BLongDir
# | 0.1000E-4 | 0.000    | 0.000    |        # [BSS] [cc] Electric Field
# | %
# | % BSEBands
# |   1 | 10 |                   # [BSK] Bands range
# | %
