#                                                           
# ooooo   oooo ..     ooo        ooo ooooooooo.    .oooo.   
#  `88.   .8" .88.    `88.       .88 `88"   `Y8b  dP"  `Yb  
#   `88. .8" .8"88.    888b     d"88  88     888 88      88 
#    `88.8" .8" `88.   8 Y88. .P  88  88oooo888" 88      88 
#     `88" .88ooo888.  8  `888"   88  88    `88b 88      88 
#      88 .8"     `88. 8    Y     88  88    .88P `8b    d8" 
#     o88o88o      888o8          88 o88bood8P"   `Ybod8P"  
#                                                           
#                Version 3.3.1 Revision 2093                
#                 http://www.yambo-code.org                 
#
# Absorption @ Q(1) [q->0 direction] :0.1000E-4  0.000     0.000   
#
#
# - Energies      are +AMGB (for 2D systems)(C)+Scissor
# - Wavefunctions are +AMGB (for 2D systems)(C)
#
# - The Green`s function is resonant -
# - Using Shifted Grids -
# - [r,Vnl] *is* included -
#
#   BSK|Identifier              :257
#      |Dimension               :80
#      |Bands                   :1 - 2
#      |Exchange           [res]: yes
#      |Correlation        [res]: yes
#      |Kernel`s coupling       : no
#      |Exchange           [cpl]: no
#      |W interaction is bare   : no
#      |Correlation        [cpl]: no
#      |ALDA kernel in R-space  : no
#      |RL vectors    [exchange]:113
#      |RL vectors [correlation]:113
#      |E/h energy range    [ev]:-1.000000 - -1.000000
#      |Coupling range     [o/o]: 100.0000 -  100.0000
#    W |Interaction is diagonal : no
#      |Matrix size             :113
#      |Bands                   :1 - 2
#      |e/h energy range    [ev]:-1.000000 - -1.000000
#      |Poles              [o/o]: 100.0000
#      |Rl vectors in the sum   :7659
#      |[r,Vnl] included        : yes
#      |Field direction         :0.1000E-4  0.000000  0.000000
#      |Coulomb Cutoff        :none
#      |xc-Kernel               :none
#   RIM|RL components      [col]:1
#      |Random points      [col]:1000000
#
#  E/ev[1]    eps /Im[2] eps /Re[3] eps0/Im[4] eps0/Re[5]
#
  0.000000   0.176032   7.058035   0.146256   6.524057
   0.01001    0.17706    7.07568    0.14703    6.53872
   0.02002    0.17810    7.09342    0.14782    6.55345
   0.03003    0.17914    7.11127    0.14861    6.56827
   0.04004    0.18020    7.12923    0.14941    6.58316
   0.05005    0.18127    7.14729    0.15021    6.59814
   0.06006    0.18234    7.16545    0.15102    6.61319
   0.07007    0.18342    7.18373    0.15184    6.62833
   0.08008    0.18452    7.20211    0.15266    6.64354
   0.09009    0.18562    7.22060    0.15349    6.65884
  0.100100   0.186737   7.239207   0.154326   6.674228
  0.110110   0.187860   7.257922   0.155169   6.689695
  0.120120   0.188995   7.276750   0.156020   6.705247
  0.130130   0.190139   7.295690   0.156877   6.720884
  0.140140   0.191294   7.314747   0.157742   6.736606
  0.150150   0.192459   7.333917   0.158613   6.752417
  0.160160   0.193635   7.353206   0.159492   6.768313
  0.170170   0.194822   7.372611   0.160378   6.784298
  0.180180   0.196019   7.392137   0.161272   6.800371
  0.190190   0.197228   7.411782   0.162173   6.816535
  0.200200   0.198448   7.431546   0.163082   6.832789
  0.210210   0.199680   7.451434   0.163998   6.849133
  0.220220   0.200923   7.471446   0.164922   6.865570
  0.230230   0.202177   7.491581   0.165854   6.882099
  0.240240   0.203444   7.511845   0.166794   6.898721
  0.250250   0.204722   7.532233   0.167742   6.915438
  0.260260   0.206012   7.552748   0.168698   6.932249
  0.270270   0.207315   7.573395   0.169662   6.949156
  0.280280   0.208630   7.594171   0.170635   6.966161
  0.290290   0.209957   7.615079   0.171616   6.983262
  0.300300   0.211298   7.636121   0.172605   7.000462
  0.310310   0.212651   7.657296   0.173603   7.017761
  0.320320   0.214017   7.678606   0.174610   7.035161
  0.330330   0.215396   7.700054   0.175625   7.052659
  0.340340   0.216789   7.721640   0.176650   7.070261
  0.350350   0.218196   7.743366   0.177683   7.087965
  0.360360   0.219616   7.765231   0.178725   7.105773
  0.370370   0.221050   7.787239   0.179777   7.123685
  0.380380   0.222498   7.809392   0.180838   7.141703
  0.390390   0.223960   7.831689   0.181908   7.159827
  0.400400   0.225437   7.854132   0.182988   7.178057
  0.410410   0.226929   7.876725   0.184077   7.196397
  0.420420   0.228435   7.899466   0.185176   7.214845
  0.430430   0.229956   7.922358   0.186286   7.233404
  0.440440   0.231493   7.945402   0.187405   7.252072
  0.450450   0.233045   7.968599   0.188534   7.270854
  0.460460   0.234613   7.991955   0.189673   7.289749
  0.470470   0.236197   8.015465   0.190823   7.308759
  0.480480   0.237797   8.039133   0.191984   7.327883
  0.490490   0.239413   8.062962   0.193154   7.347123
  0.500500   0.241045   8.086954   0.194336   7.366481
  0.510511   0.242695   8.111110   0.195529   7.385957
  0.520521   0.244361   8.135429   0.196732   7.405552
  0.530531   0.246045   8.159916   0.197947   7.425269
  0.540541   0.247746   8.184572   0.199173   7.445107
  0.550551   0.249465   8.209396   0.200410   7.465068
  0.560561   0.251201   8.234394   0.201659   7.485153
  0.570571   0.252956   8.259567   0.202920   7.505363
  0.580581   0.254730   8.284912   0.204193   7.525699
  0.590591   0.256522   8.310438   0.205477   7.546161
  0.600601   0.258333   8.336144   0.206774   7.566753
  0.610611   0.260163   8.362030   0.208083   7.587476
  0.620621   0.262013   8.388100   0.209405   7.608330
  0.630631   0.263883   8.414354   0.210739   7.629315
  0.640641   0.265772   8.440796   0.212086   7.650435
  0.650651   0.267683   8.467426   0.213446   7.671689
  0.660661   0.269613   8.494248   0.214819   7.693080
  0.670671   0.271565   8.521264   0.216205   7.714608
  0.680681   0.273538   8.548473   0.217605   7.736275
  0.690691   0.275533   8.575883   0.219018   7.758081
  0.700701   0.277550   8.603489   0.220445   7.780031
  0.710711   0.279588   8.631301   0.221887   7.802122
  0.720721   0.281650   8.659313   0.223342   7.824358
  0.730731   0.283734   8.687535   0.224812   7.846740
  0.740741   0.285841   8.715964   0.226296   7.869269
  0.750751   0.287972   8.744602   0.227795   7.891947
  0.760761   0.290127   8.773456   0.229309   7.914773
  0.770771   0.292307   8.802526   0.230839   7.937754
  0.780781   0.294511   8.831814   0.232383   7.960886
  0.790791   0.296739   8.861320   0.233943   7.984173
  0.800801   0.298994   8.891052   0.235519   8.007617
  0.810811   0.301274   8.921008   0.237111   8.031219
  0.820821   0.303580   8.951194   0.238719   8.054979
  0.830831   0.305913   8.981609   0.240343   8.078901
  0.840841   0.308273   9.012258   0.241984   8.102985
  0.850851   0.310660   9.043143   0.243642   8.127235
  0.860861   0.313076   9.074267   0.245318   8.151649
  0.870871   0.315519   9.105632   0.247010   8.176232
  0.880881   0.317991   9.137241   0.248720   8.200984
  0.890891   0.320493   9.169100   0.250448   8.225908
  0.900901   0.323024   9.201207   0.252193   8.251004
  0.910911   0.325585   9.233569   0.253958   8.276276
  0.920921   0.328176   9.266187   0.255740   8.301723
  0.930931   0.330799   9.299065   0.257542   8.327351
  0.940941   0.333454   9.332203   0.259363   8.353155
  0.950951   0.336140   9.365611   0.261203   8.379145
  0.960961   0.338859   9.399283   0.263062   8.405318
  0.970971   0.341611   9.433229   0.264942   8.431679
  0.980981   0.344397   9.467448   0.266842   8.458226
  0.990991   0.347217   9.501948   0.268762   8.484963
  1.001001   0.350072   9.536732   0.270704   8.511893
  1.011011   0.352962   9.571799   0.272666   8.539019
  1.021021   0.355888   9.607156   0.274650   8.566339
  1.031031   0.358851   9.642805   0.276655   8.593859
  1.041041   0.361851   9.678752   0.278683   8.621580
  1.051051   0.364889   9.714998   0.280732   8.649504
  1.061061   0.367965   9.751547   0.282805   8.677631
  1.071071   0.371080   9.788404   0.284901   8.705967
  1.081081   0.374235   9.825574   0.287020   8.734513
  1.091091   0.377430   9.863058   0.289162   8.763272
  1.101101   0.380666   9.900861   0.291329   8.792244
  1.111111   0.383945   9.938989   0.293520   8.821434
  1.121121   0.387265   9.977445   0.295736   8.850842
   1.13113    0.39063   10.01623    0.29798    8.88047
   1.14114    0.39404   10.05536    0.30024    8.91033
   1.15115    0.39749   10.09482    0.30254    8.94041
   1.16116    0.40099   10.13463    0.30486    8.97072
   1.17117    0.40453   10.17479    0.30720    9.00126
   1.18118    0.40813   10.21530    0.30958    9.03204
   1.19119    0.41177   10.25618    0.31198    9.06306
   1.20120    0.41546   10.29742    0.31440    9.09431
   1.21121    0.41919   10.33902    0.31686    9.12581
   1.22122    0.42298   10.38100    0.31935    9.15756
   1.23123    0.42683   10.42336    0.32186    9.18955
   1.24124    0.43072   10.46610    0.32441    9.22180
   1.25125    0.43467   10.50923    0.32698    9.25430
   1.26126    0.43867   10.55276    0.32959    9.28705
   1.27127    0.44273   10.59669    0.33223    9.32007
   1.28128    0.44684   10.64102    0.33490    9.35336
   1.29129    0.45101   10.68576    0.33760    9.38691
   1.30130    0.45524   10.73092    0.34034    9.42072
   1.31131    0.45953   10.77650    0.34310    9.45482
   1.32132    0.46388   10.82251    0.34591    9.48919
   1.33133    0.46830   10.86896    0.34874    9.52384
   1.34134    0.47277   10.91584    0.35161    9.55877
   1.35135    0.47731   10.96318    0.35452    9.59400
   1.36136    0.48192   11.01097    0.35746    9.62951
   1.37137    0.48659   11.05922    0.36044    9.66532
   1.38138    0.49134   11.10793    0.36346    9.70142
   1.39139    0.49615   11.15712    0.36652    9.73783
   1.40140    0.50103   11.20679    0.36961    9.77454
   1.41141    0.50599   11.25694    0.37274    9.81156
   1.42142    0.51101   11.30759    0.37592    9.84890
   1.43143    0.51612   11.35875    0.37913    9.88655
   1.44144    0.52130   11.41041    0.38239    9.92453
   1.45145    0.52656   11.46259    0.38569    9.96283
   1.46146    0.53190   11.51530    0.38903   10.00146
   1.47147    0.53732   11.56853    0.39241   10.04042
   1.48148    0.54283   11.62231    0.39584   10.07972
   1.49149    0.54842   11.67664    0.39931   10.11937
   1.50150    0.55409   11.73153    0.40283   10.15936
   1.51151    0.55986   11.78698    0.40640   10.19970
   1.52152    0.56571   11.84301    0.41001   10.24040
   1.53153    0.57166   11.89962    0.41368   10.28147
   1.54154    0.57770   11.95683    0.41739   10.32290
   1.55155    0.58384   12.01464    0.42115   10.36469
   1.56156    0.59008   12.07306    0.42496   10.40687
   1.57157    0.59642   12.13210    0.42883   10.44943
   1.58158    0.60286   12.19178    0.43275   10.49237
   1.59159    0.60940   12.25210    0.43672   10.53570
   1.60160    0.61605   12.31307    0.44074   10.57944
   1.61161    0.62282   12.37471    0.44483   10.62357
   1.62162    0.62969   12.43701    0.44897   10.66811
   1.63163    0.63668   12.50001    0.45316   10.71307
   1.64164    0.64378   12.56370    0.45742   10.75844
   1.65165    0.65101   12.62810    0.46174   10.80424
   1.66166    0.65836   12.69322    0.46612   10.85047
   1.67167    0.66583   12.75907    0.47056   10.89714
   1.68168    0.67343   12.82566    0.47506   10.94425
   1.69169    0.68116   12.89302    0.47963   10.99182
   1.70170    0.68902   12.96114    0.48427   11.03984
   1.71171    0.69702   13.03005    0.48897   11.08832
   1.72172    0.70517   13.09975    0.49375   11.13727
   1.73173    0.71345   13.17027    0.49859   11.18670
   1.74174    0.72188   13.24161    0.50350   11.23661
   1.75175    0.73047   13.31379    0.50849   11.28702
   1.76176    0.73920   13.38683    0.51355   11.33792
   1.77177    0.74810   13.46073    0.51869   11.38933
   1.78178    0.75715   13.53552    0.52391   11.44125
   1.79179    0.76637   13.61120    0.52920   11.49369
   1.80180    0.77577   13.68781    0.53458   11.54666
   1.81181    0.78533   13.76536    0.54003   11.60016
   1.82182    0.79507   13.84385    0.54557   11.65421
   1.83183    0.80500   13.92332    0.55120   11.70882
   1.84184    0.81511   14.00377    0.55692   11.76398
   1.85185    0.82541   14.08523    0.56272   11.81972
   1.86186    0.83591   14.16770    0.56861   11.87603
   1.87187    0.84661   14.25123    0.57460   11.93293
   1.88188    0.85752   14.33582    0.58069   11.99043
   1.89189    0.86864   14.42149    0.58687   12.04854
   1.90190    0.87998   14.50827    0.59315   12.10726
   1.91191    0.89154   14.59618    0.59953   12.16661
   1.92192    0.90333   14.68523    0.60601   12.22660
   1.93193    0.91536   14.77545    0.61260   12.28724
   1.94194    0.92762   14.86687    0.61930   12.34853
   1.95195    0.94014   14.95951    0.62611   12.41048
   1.96196    0.95291   15.05339    0.63303   12.47312
   1.97197    0.96594   15.14854    0.64007   12.53645
   1.98198    0.97925   15.24498    0.64722   12.60048
   1.99199    0.99282   15.34274    0.65450   12.66522
   2.00200    1.00669   15.44184    0.66189   12.73069
   2.01201    1.02084   15.54233    0.66942   12.79689
   2.02202    1.03530   15.64421    0.67707   12.86385
   2.03203    1.05006   15.74753    0.68486   12.93156
   2.04204    1.06515   15.85231    0.69278   13.00006
   2.05205    1.08055   15.95859    0.70084   13.06934
   2.06206    1.09630   16.06639    0.70904   13.13942
   2.07207    1.11239   16.17576    0.71738   13.21032
   2.08208    1.12884   16.28671    0.72588   13.28205
   2.09209    1.14566   16.39930    0.73452   13.35463
   2.10210    1.16286   16.51355    0.74332   13.42807
   2.11211    1.18044   16.62950    0.75228   13.50239
   2.12212    1.19843   16.74719    0.76140   13.57759
   2.13213    1.21683   16.86666    0.77069   13.65371
   2.14214    1.23566   16.98795    0.78015   13.73075
   2.15215    1.25492   17.11110    0.78979   13.80873
   2.16216    1.27465   17.23615    0.79960   13.88767
   2.17217    1.29484   17.36316    0.80960   13.96758
   2.18218    1.31551   17.49215    0.81979   14.04849
   2.19219    1.33668   17.62319    0.83017   14.13042
   2.20220    1.35837   17.75631    0.84075   14.21337
   2.21221    1.38058   17.89158    0.85153   14.29738
   2.22222    1.40335   18.02904    0.86252   14.38246
   2.23223    1.42669   18.16873    0.87372   14.46863
   2.24224    1.45061   18.31074    0.88515   14.55591
   2.25225    1.47513   18.45509    0.89680   14.64433
   2.26226    1.50029   18.60186    0.90868   14.73391
   2.27227    1.52609   18.75111    0.92080   14.82467
   2.28228    1.55256   18.90289    0.93316   14.91663
   2.29229    1.57973   19.05729    0.94578   15.00982
   2.30230    1.60761   19.21435    0.95865   15.10426
   2.31231    1.63624   19.37415    0.97178   15.19998
   2.32232    1.66564   19.53676    0.98519   15.29700
   2.33233    1.69584   19.70226    0.99887   15.39535
   2.34234    1.72686   19.87072    1.01285   15.49506
   2.35235    1.75874   20.04223    1.02712   15.59615
   2.36236    1.79152   20.21686    1.04169   15.69866
   2.37237    1.82521   20.39469    1.05657   15.80262
   2.38238    1.85987   20.57584    1.07178   15.90804
   2.39239    1.89551   20.76037    1.08731   16.01498
   2.40240    1.93220   20.94839    1.10318   16.12346
   2.41241    1.96995   21.13999    1.11941   16.23351
   2.42242    2.00882   21.33528    1.13599   16.34516
   2.43243    2.04885   21.53438    1.15295   16.45845
   2.44244    2.09009   21.73736    1.17029   16.57343
   2.45245    2.13258   21.94438    1.18802   16.69012
   2.46246    2.17638   22.15553    1.20616   16.80856
   2.47247    2.22154   22.37094    1.22471   16.92880
   2.48248    2.26811   22.59075    1.24370   17.05087
   2.49249    2.31616   22.81508    1.26313   17.17482
   2.50250    2.36576   23.04408    1.28302   17.30068
   2.51251    2.41695   23.27790    1.30338   17.42851
   2.52252    2.46983   23.51667    1.32423   17.55836
   2.53253    2.52445   23.76057    1.34559   17.69026
   2.54254    2.58090   24.00975    1.36746   17.82427
   2.55255    2.63926   24.26440    1.38987   17.96044
   2.56256    2.69962   24.52467    1.41284   18.09881
   2.57257    2.76206   24.79076    1.43638   18.23945
   2.58258    2.82669   25.06288    1.46051   18.38241
   2.59259    2.89360   25.34122    1.48526   18.52774
   2.60260    2.96292   25.62600    1.51063   18.67552
   2.61261    3.03474   25.91742    1.53667   18.82579
   2.62262    3.10920   26.21574    1.56338   18.97862
   2.63263    3.18642   26.52119    1.59079   19.13408
   2.64264    3.26655   26.83402    1.61893   19.29224
   2.65265    3.34972   27.15451    1.64782   19.45316
   2.66266    3.43610   27.48292    1.67749   19.61691
   2.67267    3.52585   27.81956    1.70796   19.78358
   2.68268    3.61914   28.16474    1.73928   19.95324
   2.69269    3.71617   28.51876    1.77146   20.12597
   2.70270    3.81714   28.88197    1.80454   20.30186
   2.71271    3.92225   29.25473    1.83855   20.48098
   2.72272    4.03175   29.63742    1.87354   20.66343
   2.73273    4.14587   30.03040    1.90953   20.84931
   2.74274    4.26488   30.43411    1.94656   21.03871
   2.75275    4.38905   30.84898    1.98468   21.23173
   2.76276    4.51870   31.27547    2.02393   21.42847
   2.77277    4.65414   31.71405    2.06435   21.62904
   2.78278    4.79573   32.16525    2.10599   21.83355
   2.79279    4.94383   32.62956    2.14890   22.04212
   2.80280    5.09885   33.10760    2.19314   22.25488
   2.81281    5.26122   33.59993    2.23874   22.47194
   2.82282    5.43141   34.10719    2.28579   22.69343
   2.83283    5.60993   34.63005    2.33433   22.91950
   2.84284    5.79732   35.16922    2.38442   23.15027
   2.85285    5.99419   35.72544    2.43615   23.38591
   2.86286    6.20115   36.29950    2.48956   23.62657
   2.87287    6.41893   36.89225    2.54475   23.87239
   2.88288    6.64827   37.50454    2.60179   24.12356
   2.89289    6.88999   38.13737    2.66077   24.38024
   2.90290    7.14500   38.79169    2.72176   24.64261
   2.91291    7.41427   39.46859    2.78487   24.91087
   2.92292    7.69887   40.16919    2.85019   25.18520
   2.93293    7.99998   40.89467    2.91783   25.46583
   2.94294    8.31887   41.64631    2.98790   25.75295
   2.95295    8.65696   42.42550    3.06051   26.04681
   2.96296    9.01578   43.23363    3.13579   26.34762
   2.97297    9.39705   44.07228    3.21387   26.65564
   2.98298    9.80264   44.94305    3.29489   26.97113
   2.99299   10.23463   45.84770    3.37900   27.29436
   3.00300   10.69530   46.78802    3.46636   27.62560
   3.01301   11.18723   47.76606    3.55714   27.96515
   3.02302   11.71322   48.78386    3.65150   28.31334
   3.03303   12.27643   49.84365    3.74966   28.67048
   3.04304   12.88036   50.94777    3.85181   29.03691
   3.05305   13.52895   52.09877    3.95817   29.41299
   3.06306   14.22657   53.29923    4.06897   29.79911
   3.07307   14.97818   54.55199    4.18446   30.19566
   3.08308   15.78929   55.85995    4.30491   30.60305
   3.09309   16.66615   57.22620    4.43060   31.02173
   3.10310   17.61585   58.65400    4.56184   31.45217
   3.11311   18.64633   60.14658    4.69897   31.89483
   3.12312   19.76669   61.70741    4.84233   32.35027
   3.13313   20.98720   63.33987    4.99230   32.81900
   3.14314   22.31962   65.04748    5.14930   33.30160
   3.15315   23.77734   66.83342    5.31376   33.79867
   3.16316   25.37575   68.70089    5.48617   34.31087
   3.17317   27.13239   70.65249    5.66704   34.83885
   3.18318   29.06754   72.69035    5.85692   35.38335
   3.19319   31.20438   74.81549    6.05642   35.94511
   3.20320   33.56977   77.02776    6.26619   36.52494
   3.21321   36.19450   79.32480    6.48695   37.12368
   3.22322   39.11421   81.70186    6.71946   37.74226
   3.23323   42.36971   84.15012    6.96456   38.38160
   3.24324   46.00813   86.65581    7.22318   39.04274
   3.25325   50.08305   89.19800    7.49630   39.72674
   3.26326   54.65565   91.74647    7.78502   40.43476
   3.27327   59.79433   94.25804    8.09053   41.16800
   3.28328   65.57517   96.67290    8.41415   41.92777
   3.29329   72.07982   98.90881    8.75730   42.71542
    3.3033    79.3936   100.8548     9.1216    43.5325
    3.3133    87.5989   102.3632     9.5087    44.3804
    3.3233    96.7675   103.2412     9.9206    45.2609
    3.3333   106.9437   103.2421    10.3594    46.1758
    3.3433   118.1242   102.0604    10.8275    47.1268
    3.3534   130.2269    99.3325    11.3274    48.1161
    3.3634   143.0511    94.6518    11.8620    49.1458
    3.3734   156.2388    87.6041    12.4346    50.2180
    3.3834   169.2390    77.8329    13.0488    51.3352
    3.3934   181.3059    65.1331    13.7085    52.4999
    3.4034   191.5454    49.5620    14.4183    53.7148
    3.4134   199.0336    31.5311    15.1832    54.9827
    3.4234   202.9929    11.8264    16.0089    56.3067
    3.4334   202.9754    -8.4688    16.9019    57.6898
    3.4434   198.9835   -28.1604    17.8693    59.1352
    3.4535   191.4697   -46.1677    18.9192    60.6464
    3.4635   181.2137   -61.7080    20.0612    62.2267
    3.4735   169.1403   -74.3742    21.3056    63.8797
    3.4835   156.1421   -84.1121    22.6646    65.6087
    3.4935   142.9642   -91.1285    24.1519    67.4169
    3.5035   130.1537   -95.7818    25.7834    69.3077
    3.5135   118.0682   -98.4858    27.5771    71.2834
    3.5235   106.9062   -99.6470    29.5538    73.3461
   3.53353   96.74953  -99.62832   31.73727   75.49662
   3.54354   87.60033  -98.73477   34.15532   77.73455
   3.55355   79.41380  -97.21217   36.83958   80.05721
   3.56356   72.11852  -95.25298   39.82662   82.45917
   3.57357   65.63194  -93.00443   43.15839   84.93080
   3.58358   59.86856  -90.57703   46.88344   87.45746
   3.59359   54.74681  -88.05270   51.05682   90.01670
   3.60360   50.19117  -85.49126   55.74091   92.57613
   3.61361   46.13280  -82.93535   61.00624   95.09027
   3.62362   42.51100  -80.41525   66.93001   97.49557
   3.63363   39.27219  -77.95172   73.59534   99.70525
    3.6436    36.3696   -75.5585    81.0875   101.6023
    3.6537    33.7622   -73.2442    89.4893   103.0317
    3.6637    31.4148   -71.0135    98.8689   103.7913
    3.6737    29.2965   -68.8688   109.2655   103.6240
    3.6837    27.3808   -66.8101   120.6647   102.2128
    3.6937    25.6445   -64.8362   132.9682    99.1838
    3.7037    24.0676   -62.9450   145.9520    94.1236
    3.7137    22.6326   -61.1339   159.2261    86.6198
    3.7237    21.3244   -59.3996   172.2043    76.3317
    3.7337    20.1297   -57.7387   184.1086    63.0869
    3.7437    19.0371   -56.1478   194.0251    46.9952
    3.7538    18.0365   -54.6232   201.0352    28.5306
    3.7638    17.1192   -53.1617   204.3979     8.5421
    3.7738    16.2773   -51.7596   203.7301   -11.8512
    3.7838    15.5043   -50.4139   199.1096   -31.4509
    3.7938    14.7942   -49.1213   191.0546   -49.2081
    3.8038    14.1421   -47.8788   180.3865   -64.3921
    3.8138    13.5435   -46.6837   168.0397   -76.6557
    3.8238    12.9947   -45.5332   154.8944   -85.9932
    3.8338    12.4923   -44.4249   141.6694   -92.6442
    3.8438    12.0338   -43.3567   128.8846   -96.9829
    3.8539    11.6168   -42.3263   116.8698   -99.4287
    3.8639    11.2396   -41.3320   105.8036  -100.3847
    3.8739    10.9008   -40.3724    95.7533  -100.2072
   3.88388   10.59965  -39.44610   86.71147  -99.19325
   3.89389   10.33549  -38.55234   78.62763  -97.58099
   3.90390   10.10820  -37.69077   71.42731  -95.55606
   3.91391    9.91798  -36.86164   65.02664  -93.26017
   3.92392    9.76523  -36.06581   59.33986  -90.79925
   3.93393    9.65054  -35.30516   54.28582  -88.25178
   3.94394    9.57440  -34.58254   49.78947  -85.67473
   3.95395    9.53695  -33.90219   45.78339  -83.10902
   3.96396    9.53743  -33.26964   42.20721  -80.58309
   3.97397    9.57360  -32.69197   39.00836  -78.11661
   3.98398    9.64085  -32.17745   36.14075  -75.72246
   3.99399    9.73117  -31.73494   33.56439  -73.40869
   4.00400    9.83238  -31.37248   31.24428  -71.17947
   4.01401    9.92766  -31.09542   29.15036  -69.03669
   4.02402    9.99630  -30.90380   27.25647  -66.98029
   4.03403   10.01589  -30.78995   25.53999  -65.00895
   4.04404    9.96614  -30.73739   23.98113  -63.12029
   4.05405    9.83326  -30.72186   22.56287  -61.31153
   4.06406    9.61345  -30.71502   21.27036  -59.57946
   4.07407    9.31382  -30.68963   20.09072  -57.92073
   4.08408    8.95026  -30.62429   19.01262  -56.33171
   4.09409    8.54351  -30.50617   18.02631  -54.80893
   4.10410    8.11473  -30.33116   17.12332  -53.34904
   4.11411    7.68225  -30.10198   16.29616  -51.94855
   4.12412    7.26010  -29.82575   15.53845  -50.60434
   4.13413    6.85765  -29.51151   14.84463  -49.31338
   4.14414    6.48037  -29.16856   14.20998  -48.07288
   4.15415    6.13061  -28.80534   13.63037  -46.88014
   4.16416    5.80873  -28.42907   13.10242  -45.73283
   4.17417    5.51374  -28.04559   12.62332  -44.62889
   4.18418    5.24390  -27.65943   12.19080  -43.56659
   4.19419    4.99714  -27.27398   11.80308  -42.54448
   4.20420    4.77130  -26.89181   11.45886  -41.56168
   4.21421    4.56425  -26.51472   11.15723  -40.61785
   4.22422    4.37403  -26.14400   10.89760  -39.71333
   4.23423    4.19883  -25.78046   10.67953  -38.84921
   4.24424    4.03703  -25.42464   10.50259  -38.02765
   4.25425    3.88719  -25.07685   10.36600  -37.25194
   4.26426    3.74806  -24.73726   10.26821  -36.52662
   4.27427    3.61850  -24.40583   10.20626  -35.85742
   4.28428    3.49756  -24.08251   10.17505  -35.25106
   4.29429    3.38437  -23.76716   10.16650  -34.71450
   4.30430    3.27820  -23.45962   10.16887  -34.25372
   4.31431    3.17836  -23.15965   10.16666  -33.87178
   4.32432    3.08430  -22.86704   10.14148  -33.56680
   4.33433    2.99550  -22.58158   10.07433  -33.33006
   4.34434    2.91151  -22.30301    9.94902  -33.14542
   4.35435    2.83194  -22.03110    9.75577  -32.99093
   4.36436    2.75642  -21.76562    9.49366  -32.84236
   4.37437    2.68466  -21.50635    9.17073  -32.67759
   4.38438    2.61635  -21.25304    8.80158  -32.48025
   4.39439    2.55127  -21.00550    8.40384  -32.24145
   4.40440    2.48918  -20.76352    7.99466  -31.95927
   4.41441    2.42988  -20.52689    7.58838  -31.63706
   4.42442    2.37319  -20.29542    7.19548  -31.28118
   4.43443    2.31895  -20.06892    6.82274  -30.89925
   4.44444    2.26701  -19.84723    6.47382  -30.49877
   4.45445    2.21724  -19.63017    6.15007  -30.08644
   4.46446    2.16952  -19.41757    5.85126  -29.66781
   4.47447    2.12374  -19.20928    5.57628  -29.24733
   4.48448    2.07981  -19.00515    5.32346  -28.82841
   4.49449    2.03763  -18.80504    5.09095  -28.41359
   4.50450    1.99713  -18.60880    4.87683  -28.00467
   4.51451    1.95824  -18.41631    4.67929  -27.60293
   4.52452    1.92090  -18.22743    4.49664  -27.20924
   4.53453    1.88505  -18.04205    4.32734  -26.82412
   4.54454    1.85064  -17.86003    4.17000  -26.44785
   4.55455    1.81763  -17.68128    4.02341  -26.08057
   4.56456    1.78600  -17.50569    3.88648  -25.72227
   4.57457    1.75572  -17.33314    3.75828  -25.37287
   4.58458    1.72676  -17.16354    3.63795  -25.03219
   4.59459    1.69913  -16.99679    3.52476  -24.70004
   4.60460    1.67281  -16.83280    3.41806  -24.37620
   4.61461    1.64782  -16.67150    3.31729  -24.06043
   4.62462    1.62418  -16.51279    3.22192  -23.75246
   4.63463    1.60191  -16.35660    3.13153  -23.45204
   4.64464    1.58106  -16.20289    3.04571  -23.15893
   4.65465    1.56167  -16.05159    2.96411  -22.87286
   4.66466    1.54383  -15.90265    2.88641  -22.59357
   4.67467    1.52761  -15.75608    2.81232  -22.32085
   4.68468    1.51312  -15.61188    2.74161  -22.05446
   4.69469    1.50047  -15.47005    2.67403  -21.79416
   4.70470    1.48980  -15.33069    2.60938  -21.53974
   4.71471    1.48126  -15.19393    2.54748  -21.29099
   4.72472    1.47501  -15.05993    2.48816  -21.04774
   4.73473    1.47118  -14.92897    2.43127  -20.80975
   4.74474    1.46991  -14.80141    2.37667  -20.57687
   4.75475    1.47127  -14.67774    2.32422  -20.34890
   4.76476    1.47519  -14.55856    2.27383  -20.12570
   4.77477    1.48147  -14.44459    2.22539  -19.90709
   4.78478    1.48962  -14.33665    2.17879  -19.69291
   4.79479    1.49884  -14.23554    2.13396  -19.48302
   4.80480    1.50791  -14.14193    2.09081  -19.27728
   4.81481    1.51519  -14.05614    2.04928  -19.07555
   4.82482    1.51880  -13.97792    2.00931  -18.87769
   4.83483    1.51682  -13.90625    1.97083  -18.68358
   4.84484    1.50770  -13.83936    1.93380  -18.49311
   4.85485    1.49062  -13.77490    1.89818  -18.30614
   4.86486    1.46572  -13.71036    1.86393  -18.12257
   4.87487    1.43405  -13.64353    1.83101  -17.94230
   4.88488    1.39728  -13.57286    1.79941  -17.76521
   4.89489    1.35735  -13.49759    1.76911  -17.59122
   4.90490    1.31605  -13.41765    1.74011  -17.42022
   4.91491    1.27489  -13.33353    1.71239  -17.25216
   4.92492    1.23492  -13.24596    1.68598  -17.08691
   4.93493    1.19682  -13.15577    1.66088  -16.92444
   4.94494    1.16096  -13.06377    1.63712  -16.76467
   4.95495    1.12748  -12.97068    1.61475  -16.60755
   4.96496    1.09635  -12.87709    1.59382  -16.45304
   4.97497    1.06745  -12.78346    1.57438  -16.30114
   4.98498    1.04064  -12.69015    1.55652  -16.15183
   4.99499    1.01572  -12.59743    1.54032  -16.00517
   5.00500    0.99252  -12.50551    1.52587  -15.86122
   5.01501    0.97087  -12.41451    1.51327  -15.72010
   5.02502    0.95059  -12.32454    1.50262  -15.58201
   5.03503    0.93155  -12.23567    1.49397  -15.44720
   5.04504    0.91361  -12.14792    1.48735  -15.31599
   5.05505    0.89667  -12.06131    1.48267  -15.18884
   5.06506    0.88061  -11.97587    1.47972  -15.06624
   5.07507    0.86535  -11.89157    1.47809  -14.94873
   5.08508    0.85082  -11.80842    1.47713  -14.83684
   5.09509    0.83694  -11.72640    1.47587  -14.73094
   5.10510    0.82367  -11.64548    1.47312  -14.63112
   5.11511    0.81094  -11.56566    1.46753  -14.53701
   5.12512    0.79871  -11.48690    1.45784  -14.44771
   5.13514    0.78695  -11.40918    1.44312  -14.36181
   5.14514    0.77561  -11.33249    1.42302  -14.27760
   5.15515    0.76467  -11.25679    1.39787  -14.19339
   5.16516    0.75410  -11.18207    1.36856  -14.10775
   5.17518    0.74388  -11.10830    1.33634  -14.01982
   5.18518    0.73399  -11.03546    1.30253  -13.92922
   5.19519    0.72440  -10.96352    1.26831  -13.83606
   5.20520    0.71510  -10.89247    1.23459  -13.74072
   5.21522    0.70608  -10.82228    1.20201  -13.64374
   5.22522    0.69731  -10.75294    1.17095  -13.54569
   5.23523    0.68880  -10.68442    1.14160  -13.44709
   5.24524    0.68053  -10.61671    1.11400  -13.34838
   5.25526    0.67250  -10.54978    1.08811  -13.24995
   5.26526    0.66468  -10.48362    1.06383  -13.15207
   5.27527    0.65708  -10.41820    1.04105  -13.05495
   5.28528    0.64970  -10.35352    1.01963  -12.95876
   5.29530    0.64251  -10.28955    0.99945  -12.86361
   5.30531    0.63554  -10.22629    0.98038  -12.76957
   5.31531    0.62876  -10.16370    0.96232  -12.67669
   5.32533    0.62218  -10.10178    0.94517  -12.58500
   5.33534    0.61579  -10.04051    0.92884  -12.49450
   5.34535    0.60961   -9.97987    0.91324  -12.40522
   5.35536    0.60362   -9.91985    0.89832  -12.31713
   5.36537    0.59783   -9.86044    0.88402  -12.23023
   5.37538    0.59225   -9.80162    0.87027  -12.14450
   5.38539    0.58687   -9.74338    0.85703  -12.05992
   5.39540    0.58171   -9.68571    0.84427  -11.97647
   5.40541    0.57678   -9.62858    0.83194  -11.89413
   5.41541    0.57209   -9.57201    0.82002  -11.81288
   5.42543    0.56764   -9.51595    0.80848  -11.73270
   5.43544    0.56346   -9.46042    0.79728  -11.65356
   5.44545    0.55956   -9.40541    0.78642  -11.57543
   5.45545    0.55596   -9.35091    0.77587  -11.49831
   5.46547    0.55270   -9.29691    0.76561  -11.42217
   5.47548    0.54980   -9.24343    0.75563  -11.34698
   5.48549    0.54730   -9.19047    0.74591  -11.27272
   5.49549    0.54523   -9.13805    0.73644  -11.19938
   5.50551    0.54365   -9.08620    0.72721  -11.12694
   5.51552    0.54260   -9.03495    0.71821  -11.05537
   5.52553    0.54213   -8.98437    0.70943  -10.98466
   5.53553    0.54228   -8.93454    0.70086  -10.91479
   5.54555    0.54312   -8.88556    0.69250  -10.84574
   5.55556    0.54466   -8.83758    0.68433  -10.77749
   5.56557    0.54690   -8.79078    0.67635  -10.71003
   5.57558    0.54980   -8.74538    0.66856  -10.64335
   5.58559    0.55325   -8.70161    0.66095  -10.57742
   5.59560    0.55702   -8.65973    0.65351  -10.51223
   5.60561    0.56080   -8.61997    0.64625  -10.44776
   5.61562    0.56412   -8.58245    0.63915  -10.38401
   5.62563    0.56644   -8.54718    0.63222  -10.32095
   5.63564    0.56718   -8.51390    0.62546  -10.25858
   5.64565    0.56582   -8.48214    0.61887  -10.19687
   5.65566    0.56207   -8.45126    0.61243  -10.13582
   5.66567    0.55587   -8.42049    0.60617  -10.07541
   5.67568    0.54748   -8.38913    0.60006  -10.01563
  5.685685   0.537377  -8.356671   0.594129  -9.956465
  5.695695   0.526117  -8.322817   0.588365  -9.897910
  5.705706   0.514271  -8.287504   0.582776  -9.839949
  5.715715   0.502315  -8.250839   0.577368  -9.782572
  5.725725   0.490607  -8.213037   0.572148  -9.725777
  5.735735   0.479382  -8.174343   0.567124  -9.669545
  5.745746   0.468774  -8.135010   0.562306  -9.613877
  5.755755   0.458842  -8.095265   0.557708  -9.558765
  5.765765   0.449591  -8.055302   0.553343  -9.504214
  5.775775   0.440995  -8.015265   0.549229  -9.450219
  5.785786   0.433009  -7.975280   0.545384  -9.396790
  5.795795   0.425582  -7.935435   0.541830  -9.343939
  5.805805   0.418660  -7.895798   0.538590  -9.291686
  5.815815   0.412191  -7.856419   0.535686  -9.240063
  5.825826   0.406126  -7.817327   0.533138  -9.189113
  5.835836   0.400421  -7.778552   0.530961  -9.138894
  5.845845   0.395037  -7.740108   0.529157  -9.089483
  5.855855   0.389938  -7.702002   0.527712  -9.040971
  5.865866   0.385096  -7.664238   0.526576  -8.993465
  5.875876   0.380483  -7.626820   0.525662  -8.947082
  5.885885   0.376076  -7.589747   0.524828  -8.901926
  5.895895   0.371856  -7.553020   0.523874  -8.858070
  5.905906   0.367804  -7.516627   0.522550  -8.815516
  5.915915   0.363905  -7.480573   0.520582  -8.774185
  5.925926   0.360147  -7.444843   0.517722  -8.733869
  5.935935   0.356518  -7.409437   0.513798  -8.694275
  5.945946   0.353008  -7.374349   0.508761  -8.655052
  5.955956   0.349608  -7.339576   0.502700  -8.615861
  5.965966   0.346310  -7.305105   0.495813  -8.576430
  5.975976   0.343109  -7.270932   0.488359  -8.536597
  5.985986   0.339997  -7.237059   0.480607  -8.496308
  5.995996   0.336970  -7.203472   0.472790  -8.455596
  6.006006   0.334024  -7.170165   0.465087  -8.414544
  6.016016   0.331154  -7.137138   0.457620  -8.373266
  6.026026   0.328358  -7.104381   0.450461  -8.331878
  6.036036   0.325632  -7.071895   0.443643  -8.290486
  6.046046   0.322974  -7.039666   0.437172  -8.249180
  6.056056   0.320383  -7.007695   0.431039  -8.208031
  6.066066   0.317856  -6.975974   0.425224  -8.167096
  6.076076   0.315392  -6.944500   0.419703  -8.126420
  6.086086   0.312991  -6.913266   0.414449  -8.086030
  6.096096   0.310651  -6.882268   0.409438  -8.045950
  6.106106   0.308373  -6.851502   0.404646  -8.006192
  6.116116   0.306156  -6.820962   0.400051  -7.966771
  6.126126   0.304002  -6.790646   0.395635  -7.927690
  6.136136   0.301911  -6.760545   0.391380  -7.888947
  6.146146   0.299885  -6.730659   0.387271  -7.850549
  6.156156   0.297924  -6.700983   0.383295  -7.812491
  6.166166   0.296033  -6.671510   0.379440  -7.774773
  6.176176   0.294213  -6.642235   0.375696  -7.737389
  6.186186   0.292468  -6.613160   0.372055  -7.700338
  6.196196   0.290802  -6.584274   0.368508  -7.663613
  6.206206   0.289221  -6.555578   0.365048  -7.627212
  6.216216   0.287731  -6.527066   0.361671  -7.591126
  6.226226   0.286338  -6.498738   0.358370  -7.555359
  6.236236   0.285051  -6.470586   0.355141  -7.519897
  6.246246   0.283880  -6.442613   0.351980  -7.484740
  6.256256   0.282836  -6.414817   0.348883  -7.449883
  6.266266   0.281933  -6.387201   0.345848  -7.415323
  6.276276   0.281186  -6.359766   0.342870  -7.381050
  6.286286   0.280613  -6.332516   0.339948  -7.347065
  6.296296   0.280234  -6.305463   0.337080  -7.313361
  6.306306   0.280071  -6.278621   0.334262  -7.279936
  6.316316   0.280150  -6.252003   0.331495  -7.246781
  6.326326   0.280497  -6.225646   0.328775  -7.213898
  6.336336   0.281138  -6.199583   0.326102  -7.181278
  6.346346   0.282099  -6.173866   0.323474  -7.148921
  6.356356   0.283399  -6.148564   0.320890  -7.116821
  6.366366   0.285047  -6.123760   0.318349  -7.084973
  6.376376   0.287032  -6.099558   0.315851  -7.053375
  6.386386   0.289311  -6.076085   0.313394  -7.022025
  6.396396   0.291801  -6.053467   0.310979  -6.990915
  6.406406   0.294359  -6.031831   0.308605  -6.960045
  6.416416   0.296780  -6.011278   0.306271  -6.929411
  6.426426   0.298800  -5.991837   0.303978  -6.899008
  6.436436   0.300121  -5.973438   0.301725  -6.868834
  6.446446   0.300458  -5.955898   0.299513  -6.838885
  6.456456   0.299599  -5.938918   0.297342  -6.809159
  6.466466   0.297460  -5.922119   0.295213  -6.779651
  6.476476   0.294106  -5.905122   0.293127  -6.750359
  6.486486   0.289734  -5.887615   0.291084  -6.721280
  6.496496   0.284623  -5.869395   0.289086  -6.692411
  6.506506   0.279070  -5.850381   0.287136  -6.663750
  6.516516   0.273348  -5.830595   0.285235  -6.635293
  6.526526   0.267667  -5.810125   0.283385  -6.607040
  6.536536   0.262178  -5.789096   0.281589  -6.578988
  6.546546   0.256972  -5.767641   0.279852  -6.551134
  6.556556   0.252093  -5.745884   0.278177  -6.523479
  6.566566   0.247557  -5.723935   0.276570  -6.496023
  6.576576   0.243355  -5.701880   0.275035  -6.468767
  6.586586   0.239470  -5.679787   0.273580  -6.441711
  6.596596   0.235876  -5.657714   0.272210  -6.414863
  6.606606   0.232545  -5.635698   0.270935  -6.388227
  6.616616   0.229450  -5.613771   0.269760  -6.361816
  6.626626   0.226566  -5.591955   0.268693  -6.335640
  6.636636   0.223868  -5.570264   0.267740  -6.309718
  6.646646   0.221337  -5.548707   0.266902  -6.284074
  6.656656   0.218953  -5.527295   0.266175  -6.258739
  6.666667   0.216700  -5.506027   0.265548  -6.233743
  6.676676   0.214563  -5.484910   0.264993  -6.209126
  6.686686   0.212530  -5.463943   0.264470  -6.184924
  6.696696   0.210591  -5.443125   0.263918  -6.161160
  6.706707   0.208735  -5.422456   0.263258  -6.137841
  6.716716   0.206956  -5.401932   0.262405  -6.114947
  6.726726   0.205245  -5.381556   0.261276  -6.092421
  6.736736   0.203597  -5.361322   0.259811  -6.070170
  6.746747   0.202006  -5.341228   0.257987  -6.048088
  6.756756   0.200468  -5.321274   0.255825  -6.026060
  6.766766   0.198979  -5.301457   0.253383  -6.003998
  6.776776   0.197535  -5.281772   0.250742  -5.981842
  6.786787   0.196134  -5.262217   0.247989  -5.959569
  6.796797   0.194773  -5.242791   0.245201  -5.937187
  6.806807   0.193449  -5.223492   0.242439  -5.914718
  6.816816   0.192161  -5.204316   0.239746  -5.892201
  6.826826   0.190907  -5.185263   0.237146  -5.869672
  6.836837   0.189685  -5.166327   0.234653  -5.847164
  6.846847   0.188495  -5.147511   0.232270  -5.824709
  6.856857   0.187336  -5.128806   0.229994  -5.802331
  6.866867   0.186207  -5.110217   0.227820  -5.780048
  6.876876   0.185107  -5.091736   0.225740  -5.757876
  6.886887   0.184037  -5.073361   0.223747  -5.735823
  6.896896   0.182996  -5.055096   0.221831  -5.713900
  6.906906   0.181984  -5.036932   0.219987  -5.692110
  6.916917   0.181001  -5.018869   0.218205  -5.670455
  6.926927   0.180049  -5.000909   0.216482  -5.648940
  6.936936   0.179127  -4.983044   0.214810  -5.627565
  6.946947   0.178237  -4.965273   0.213185  -5.606328
  6.956956   0.177380  -4.947598   0.211603  -5.585234
  6.966967   0.176558  -4.930014   0.210060  -5.564276
  6.976976   0.175772  -4.912519   0.208553  -5.543458
  6.986986   0.175025  -4.895112   0.207079  -5.522777
  6.996997   0.174319  -4.877789   0.205636  -5.502230
  7.007007   0.173657  -4.860551   0.204221  -5.481819
  7.017016   0.173044  -4.843397   0.202832  -5.461540
  7.027027   0.172483  -4.826322   0.201468  -5.441391
  7.037036   0.171980  -4.809328   0.200127  -5.421374
  7.047047   0.171541  -4.792411   0.198809  -5.401483
  7.057057   0.171172  -4.775575   0.197512  -5.381719
  7.067067   0.170881  -4.758820   0.196234  -5.362081
  7.077077   0.170678  -4.742145   0.194976  -5.342566
  7.087087   0.170573  -4.725556   0.193736  -5.323174
  7.097096   0.170579  -4.709056   0.192513  -5.303903
  7.107107   0.170708  -4.692653   0.191308  -5.284749
  7.117116   0.170977  -4.676360   0.190119  -5.265716
  7.127127   0.171401  -4.660189   0.188946  -5.246797
  7.137137   0.171998  -4.644165   0.187788  -5.227995
  7.147147   0.172785  -4.628315   0.186647  -5.209307
  7.157157   0.173776  -4.612674   0.185519  -5.190731
  7.167167   0.174980  -4.597296   0.184407  -5.172266
  7.177176   0.176399  -4.582238   0.183309  -5.153912
  7.187187   0.178015  -4.567571   0.182226  -5.135665
  7.197196   0.179791  -4.553379   0.181157  -5.117527
  7.207206   0.181657  -4.539748   0.180102  -5.099496
  7.217217   0.183502  -4.526745   0.179061  -5.081568
  7.227227   0.185178  -4.514423   0.178035  -5.063745
  7.237237   0.186503  -4.502766   0.177023  -5.046025
  7.247247   0.187289  -4.491700   0.176026  -5.028407
  7.257257   0.187373  -4.481069   0.175043  -5.010889
  7.267267   0.186657  -4.470654   0.174075  -4.993469
  7.277277   0.185135  -4.460212   0.173123  -4.976149
  7.287287   0.182893  -4.449518   0.172188  -4.958925
  7.297297   0.180084  -4.438406   0.171268  -4.941798
  7.307307   0.176897  -4.426786   0.170366  -4.924766
  7.317317   0.173515  -4.414641   0.169483  -4.907827
  7.327327   0.170093  -4.402011   0.168618  -4.890983
  7.337337   0.166747  -4.388966   0.167774  -4.874232
  7.347347   0.163550  -4.375588   0.166953  -4.857572
  7.357357   0.160546  -4.361960   0.166155  -4.841005
  7.367367   0.157753  -4.348161   0.165383  -4.824531
  7.377377   0.155172  -4.334246   0.164639  -4.808147
  7.387387   0.152796  -4.320270   0.163925  -4.791859
  7.397398   0.150609  -4.306269   0.163245  -4.775664
  7.407407   0.148595  -4.292278   0.162601  -4.759567
  7.417417   0.146736  -4.278315   0.161998  -4.743573
  7.427427   0.145015  -4.264398   0.161436  -4.727683
  7.437437   0.143417  -4.250540   0.160920  -4.711908
  7.447447   0.141929  -4.236747   0.160451  -4.696256
  7.457457   0.140536  -4.223028   0.160027  -4.680736
  7.467467   0.139229  -4.209384   0.159645  -4.665365
  7.477477   0.137997  -4.195817   0.159296  -4.650158
  7.487487   0.136833  -4.182329   0.158966  -4.635127
  7.497497   0.135728  -4.168923   0.158630  -4.620286
  7.507507   0.134677  -4.155595   0.158260  -4.605641
  7.517517   0.133674  -4.142345   0.157820  -4.591187
  7.527527   0.132715  -4.129175   0.157275  -4.576905
  7.537538   0.131794  -4.116081   0.156597  -4.562759
  7.547547   0.130910  -4.103064   0.155771  -4.548709
  7.557557   0.130058  -4.090120   0.154801  -4.534707
  7.567567   0.129236  -4.077249   0.153707  -4.520711
  7.577577   0.128442  -4.064450   0.152520  -4.506695
  7.587587   0.127673  -4.051724   0.151276  -4.492643
  7.597597   0.126929  -4.039065   0.150008  -4.478558
  7.607607   0.126207  -4.026476   0.148744  -4.464445
  7.617618   0.125506  -4.013952   0.147504  -4.450319
  7.627627   0.124826  -4.001493   0.146299  -4.436197
  7.637637   0.124165  -3.989100   0.145136  -4.422092
  7.647647   0.123523  -3.976768   0.144019  -4.408017
  7.657657   0.122898  -3.964499   0.142946  -4.393983
  7.667668   0.122292  -3.952288   0.141915  -4.379999
  7.677677   0.121702  -3.940137   0.140924  -4.366072
  7.687687   0.121130  -3.928046   0.139970  -4.352205
  7.697698   0.120575  -3.916008   0.139048  -4.338402
  7.707707   0.120037  -3.904027   0.138156  -4.324667
  7.717717   0.119516  -3.892101   0.137291  -4.310999
  7.727727   0.119013  -3.880226   0.136450  -4.297401
  7.737737   0.118529  -3.868403   0.135631  -4.283874
  7.747747   0.118063  -3.856633   0.134831  -4.270417
  7.757758   0.117617  -3.844912   0.134050  -4.257029
  7.767767   0.117192  -3.833237   0.133285  -4.243711
  7.777778   0.116788  -3.821610   0.132536  -4.230462
  7.787787   0.116409  -3.810030   0.131800  -4.217284
  7.797797   0.116054  -3.798496   0.131077  -4.204174
  7.807807   0.115726  -3.787004   0.130365  -4.191131
  7.817817   0.115428  -3.775557   0.129665  -4.178156
  7.827827   0.115163  -3.764150   0.128976  -4.165248
  7.837838   0.114933  -3.752786   0.128296  -4.152405
  7.847847   0.114743  -3.741465   0.127625  -4.139628
  7.857858   0.114596  -3.730181   0.126964  -4.126916
  7.867867   0.114498  -3.718942   0.126310  -4.114270
  7.877877   0.114456  -3.707743   0.125665  -4.101686
  7.887888   0.114475  -3.696589   0.125028  -4.089165
  7.897897   0.114564  -3.685483   0.124397  -4.076707
  7.907907   0.114731  -3.674429   0.123775  -4.064311
  7.917918   0.114986  -3.663433   0.123159  -4.051975
  7.927927   0.115341  -3.652503   0.122550  -4.039701
  7.937938   0.115807  -3.641653   0.121947  -4.027486
  7.947948   0.116396  -3.630901   0.121352  -4.015331
  7.957957   0.117119  -3.620267   0.120762  -4.003236
  7.967968   0.117984  -3.609781   0.120179  -3.991198
  7.977978   0.118997  -3.599482   0.119602  -3.979218
  7.987987   0.120152  -3.589416   0.119032  -3.967296
  7.997998   0.121433  -3.579635   0.118467  -3.955430
  8.008007   0.122803  -3.570197   0.117909  -3.943621
  8.018017   0.124202  -3.561158   0.117357  -3.931868
  8.028028   0.125543  -3.552562   0.116811  -3.920169
  8.038037   0.126709  -3.544427   0.116272  -3.908526
  8.048048   0.127573  -3.536724   0.115739  -3.896936
  8.058058   0.128007  -3.529376   0.115212  -3.885401
  8.068068   0.127918  -3.522254   0.114692  -3.873918
  8.078078   0.127265  -3.515193   0.114179  -3.862488
  8.088088   0.126073  -3.508032   0.113674  -3.851110
  8.098097   0.124427  -3.500628   0.113175  -3.839785
  8.108108   0.122447  -3.492891   0.112685  -3.828510
  8.118117   0.120264  -3.484783   0.112203  -3.817287
  8.128128   0.117996  -3.476312   0.111729  -3.806114
  8.138138   0.115740  -3.467518   0.111265  -3.794992
  8.148148   0.113561  -3.458454   0.110810  -3.783919
  8.158158   0.111500  -3.449179   0.110367  -3.772897
  8.168168   0.109578  -3.439746   0.109935  -3.761924
  8.178178   0.107803  -3.430206   0.109516  -3.751002
  8.188188   0.106171  -3.420595   0.109111  -3.740129
  8.198197   0.104674  -3.410948   0.108722  -3.729308
  8.208207   0.103302  -3.401286   0.108349  -3.718540
  8.218218   0.102042  -3.391628   0.107994  -3.707824
  8.228228   0.100884  -3.381989   0.107659  -3.697166
   8.23824    0.09981   -3.37238    0.10735   -3.68657
   8.24825    0.09882   -3.36280    0.10705   -3.67603
   8.25826    0.09790   -3.35327    0.10679   -3.66556
   8.26827    0.09705   -3.34377    0.10654   -3.65517
   8.27828    0.09624   -3.33433    0.10631   -3.64486
   8.28829    0.09549   -3.32493    0.10609   -3.63463
   8.29830    0.09478   -3.31558    0.10587   -3.62451
   8.30831    0.09410   -3.30627    0.10564   -3.61448
   8.31832    0.09346   -3.29701    0.10539   -3.60455
   8.32833    0.09285   -3.28781    0.10508   -3.59472
   8.33834    0.09227   -3.27864    0.10472   -3.58497
   8.34835    0.09172   -3.26953    0.10429   -3.57527
   8.35836    0.09118   -3.26046    0.10379   -3.56561
   8.36837    0.09067   -3.25143    0.10322   -3.55597
   8.37838    0.09018   -3.24245    0.10260   -3.54633
   8.38839    0.08970   -3.23351    0.10195   -3.53668
   8.39840    0.08924   -3.22461    0.10128   -3.52701
   8.40841    0.08880   -3.21575    0.10061   -3.51734
   8.41842    0.08837   -3.20693    0.09994   -3.50767
   8.42843    0.08795   -3.19816    0.09929   -3.49800
   8.43844    0.08755   -3.18942    0.09866   -3.48834
   8.44845    0.08716   -3.18072    0.09805   -3.47870
   8.45846    0.08678   -3.17205    0.09747   -3.46908
   8.46847    0.08642   -3.16343    0.09690   -3.45950
   8.47848    0.08606   -3.15484    0.09636   -3.44994
   8.48849    0.08572   -3.14628    0.09583   -3.44042
   8.49850    0.08538   -3.13776    0.09532   -3.43094
   8.50851    0.08506   -3.12926    0.09482   -3.42149
   8.51852    0.08475   -3.12081    0.09433   -3.41209
   8.52853    0.08445   -3.11238    0.09386   -3.40272
   8.53854    0.08417   -3.10399    0.09340   -3.39339
   8.54855    0.08389   -3.09562    0.09295   -3.38411
   8.55856    0.08363   -3.08728    0.09251   -3.37486
   8.56857    0.08338   -3.07898    0.09208   -3.36565
   8.57858    0.08315   -3.07070    0.09165   -3.35648
   8.58859    0.08293   -3.06244    0.09123   -3.34735
   8.59860    0.08273   -3.05422    0.09082   -3.33827
   8.60861    0.08255   -3.04602    0.09041   -3.32922
   8.61862    0.08239   -3.03784    0.09001   -3.32021
   8.62863    0.08224   -3.02969    0.08962   -3.31123
   8.63864    0.08212   -3.02157    0.08923   -3.30230
   8.64865    0.08203   -3.01346    0.08884   -3.29340
   8.65866    0.08197   -3.00538    0.08846   -3.28454
   8.66867    0.08194   -2.99733    0.08808   -3.27572
   8.67868    0.08194   -2.98930    0.08771   -3.26694
   8.68869    0.08199   -2.98130    0.08734   -3.25819
   8.69870    0.08208   -2.97332    0.08697   -3.24948
   8.70871    0.08223   -2.96537    0.08661   -3.24080
   8.71872    0.08244   -2.95746    0.08625   -3.23217
   8.72873    0.08271   -2.94958    0.08589   -3.22356
   8.73874    0.08305   -2.94175    0.08554   -3.21499
   8.74875    0.08348   -2.93398    0.08519   -3.20646
   8.75876    0.08401   -2.92628    0.08484   -3.19796
   8.76877    0.08463   -2.91867    0.08450   -3.18950
   8.77878    0.08535   -2.91118    0.08416   -3.18106
   8.78879    0.08618   -2.90383    0.08382   -3.17267
   8.79880    0.08711   -2.89666    0.08349   -3.16430
   8.80881    0.08812   -2.88971    0.08316   -3.15597
   8.81882    0.08917   -2.88302    0.08283   -3.14768
   8.82883    0.09022   -2.87664    0.08251   -3.13941
   8.83884    0.09119   -2.87057    0.08219   -3.13118
   8.84885    0.09198   -2.86483    0.08187   -3.12298
   8.85886    0.09251   -2.85938    0.08155   -3.11481
   8.86887    0.09270   -2.85413    0.08124   -3.10668
   8.87888    0.09249   -2.84899    0.08093   -3.09858
   8.88889    0.09188   -2.84384    0.08063   -3.09050
   8.89890    0.09090   -2.83855    0.08033   -3.08246
   8.90891    0.08963   -2.83305    0.08003   -3.07445
   8.91892    0.08816   -2.82729    0.07974   -3.06647
   8.92893    0.08659   -2.82125    0.07945   -3.05852
   8.93894    0.08499   -2.81497    0.07917   -3.05060
   8.94895    0.08343   -2.80846    0.07889   -3.04271
   8.95896    0.08193   -2.80177    0.07862   -3.03485
   8.96897    0.08053   -2.79494    0.07835   -3.02702
   8.97898    0.07924   -2.78802    0.07809   -3.01922
   8.98899    0.07804   -2.78102    0.07784   -3.01145
   8.99900    0.07695   -2.77399    0.07760   -3.00372
   9.00901    0.07595   -2.76693    0.07736   -2.99601
   9.01902    0.07504   -2.75986    0.07714   -2.98833
   9.02903    0.07421   -2.75280    0.07692   -2.98069
   9.03904    0.07344   -2.74575    0.07671   -2.97308
   9.04905    0.07273   -2.73872    0.07652   -2.96551
   9.05906    0.07208   -2.73172    0.07634   -2.95798
   9.06907    0.07147   -2.72474    0.07617   -2.95049
   9.07908    0.07091   -2.71779    0.07601   -2.94304
   9.08909    0.07038   -2.71087    0.07586   -2.93565
   9.09910    0.06989   -2.70398    0.07571   -2.92831
   9.10911    0.06942   -2.69712    0.07556   -2.92103
   9.11912    0.06898   -2.69030    0.07540   -2.91380
   9.12913    0.06856   -2.68350    0.07521   -2.90663
   9.13914    0.06817   -2.67673    0.07500   -2.89951
   9.14915    0.06779   -2.67000    0.07474   -2.89242
   9.15916    0.06743   -2.66329    0.07445   -2.88537
   9.16917    0.06708   -2.65662    0.07413   -2.87833
   9.17918    0.06675   -2.64997    0.07377   -2.87130
   9.18919    0.06643   -2.64335    0.07339   -2.86427
   9.19920    0.06613   -2.63676    0.07300   -2.85723
   9.20921    0.06583   -2.63019    0.07260   -2.85019
   9.21922    0.06555   -2.62365    0.07221   -2.84315
   9.22923    0.06527   -2.61714    0.07182   -2.83612
   9.23924    0.06500   -2.61065    0.07144   -2.82909
   9.24925    0.06475   -2.60419    0.07108   -2.82208
   9.25926    0.06450   -2.59775    0.07072   -2.81508
   9.26927    0.06426   -2.59134    0.07038   -2.80810
   9.27928    0.06403   -2.58495    0.07005   -2.80114
   9.28929    0.06380   -2.57858    0.06973   -2.79420
   9.29930    0.06359   -2.57223    0.06941   -2.78729
   9.30931    0.06338   -2.56590    0.06911   -2.78039
   9.31932    0.06318   -2.55960    0.06881   -2.77352
   9.32933    0.06298   -2.55331    0.06852   -2.76668
   9.33934    0.06280   -2.54705    0.06824   -2.75986
   9.34935    0.06262   -2.54080    0.06796   -2.75307
   9.35936    0.06246   -2.53458    0.06769   -2.74630
   9.36937    0.06230   -2.52837    0.06742   -2.73955
   9.37938    0.06215   -2.52218    0.06715   -2.73284
   9.38939    0.06202   -2.51600    0.06689   -2.72614
   9.39940    0.06189   -2.50985    0.06663   -2.71947
   9.40941    0.06178   -2.50371    0.06638   -2.71282
   9.41942    0.06168   -2.49758    0.06613   -2.70620
   9.42943    0.06160   -2.49147    0.06588   -2.69961
   9.43944    0.06153   -2.48538    0.06564   -2.69303
   9.44945    0.06148   -2.47930    0.06539   -2.68648
   9.45946    0.06145   -2.47324    0.06515   -2.67996
   9.46947    0.06144   -2.46719    0.06492   -2.67346
   9.47948    0.06146   -2.46116    0.06468   -2.66698
   9.48949    0.06151   -2.45514    0.06445   -2.66052
   9.49950    0.06159   -2.44914    0.06421   -2.65409
   9.50951    0.06170   -2.44315    0.06399   -2.64768
   9.51952    0.06186   -2.43719    0.06376   -2.64129
   9.52953    0.06206   -2.43125    0.06353   -2.63493
   9.53954    0.06232   -2.42535    0.06331   -2.62859
   9.54955    0.06263   -2.41947    0.06309   -2.62227
   9.55956    0.06301   -2.41365    0.06286   -2.61597
   9.56957    0.06346   -2.40788    0.06265   -2.60969
   9.57958    0.06398   -2.40218    0.06243   -2.60344
   9.58959    0.06459   -2.39658    0.06221   -2.59721
   9.59960    0.06526   -2.39109    0.06200   -2.59100
   9.60961    0.06601   -2.38575    0.06179   -2.58481
   9.61962    0.06680   -2.38059    0.06158   -2.57864
   9.62963    0.06761   -2.37563    0.06137   -2.57249
   9.63964    0.06839   -2.37091    0.06116   -2.56636
   9.64965    0.06907   -2.36643    0.06096   -2.56026
   9.65966    0.06959   -2.36217    0.06076   -2.55417
   9.66967    0.06988   -2.35810    0.06055   -2.54811
   9.67968    0.06989   -2.35414    0.06036   -2.54206
   9.68969    0.06960   -2.35021    0.06016   -2.53604
   9.69970    0.06902   -2.34623    0.05996   -2.53004
   9.70971    0.06820   -2.34211    0.05977   -2.52405
   9.71972    0.06719   -2.33780    0.05958   -2.51809
   9.72973    0.06608   -2.33329    0.05939   -2.51214
   9.73974    0.06492   -2.32859    0.05921   -2.50622
   9.74975    0.06376   -2.32370    0.05903   -2.50031
   9.75976    0.06264   -2.31867    0.05885   -2.49443
   9.76977    0.06159   -2.31351    0.05867   -2.48856
   9.77978    0.06061   -2.30827    0.05850   -2.48271
   9.78979    0.05971   -2.30297    0.05833   -2.47688
   9.79980    0.05888   -2.29762    0.05817   -2.47108
   9.80981    0.05813   -2.29225    0.05801   -2.46529
   9.81982    0.05744   -2.28686    0.05786   -2.45952
   9.82983    0.05681   -2.28147    0.05771   -2.45378
   9.83984    0.05624   -2.27609    0.05757   -2.44805
   9.84985    0.05571   -2.27072    0.05743   -2.44235
   9.85986    0.05522   -2.26536    0.05731   -2.43667
   9.86987    0.05478   -2.26002    0.05719   -2.43102
   9.87988    0.05436   -2.25470    0.05707   -2.42540
   9.88989    0.05397   -2.24940    0.05696   -2.41980
   9.89990    0.05361   -2.24411    0.05686   -2.41424
   9.90991    0.05327   -2.23886    0.05675   -2.40872
   9.91992    0.05295   -2.23362    0.05664   -2.40323
   9.92993    0.05265   -2.22840    0.05651   -2.39777
   9.93994    0.05237   -2.22320    0.05638   -2.39235
   9.94995    0.05210   -2.21803    0.05622   -2.38696
   9.95996    0.05184   -2.21287    0.05604   -2.38158
   9.96997    0.05159   -2.20774    0.05583   -2.37622
   9.97998    0.05136   -2.20263    0.05561   -2.37087
   9.98999    0.05113   -2.19753    0.05537   -2.36552
  10.00000    0.05092   -2.19246    0.05512   -2.36016
# 
# YAMBO@ermengarda x 001 CPUs * 04/06/2013  00:18 [start]
#                               04/06/2013  00:19 [end]
# 
# Cpu Timing [Min/Max/Average]: 49s/49s/49s
#
# .-Input file : INPUTS/03_BSE_RIM
# | optics                       # [R OPT] Optics
# | bse                          # [R BSE] Bethe Salpeter Equation.
# | bsk                          # [R BSK] Bethe Salpeter Equation kernel
# | bss                          # [R BSS] Bethe Salpeter Equation solver
# | em1s                         # [R Xs] Static Inverse Dielectric Matrix
# | rim_cut                      # [R RIM CUT] Coulomb interaction
# | BoseTemp= 0.000000     eV    # Bosonic Temperature
# | RandQpts= 1000000            # [RIM] Number of random q-points in the BZ
# | RandGvec= 1            RL    # [RIM] Coulomb interaction RS components
# | CUTGeo= "none"               # [CUT] Coulomb Cutoff geometry: box/cylinder/sphere
# | % CUTBox
# |  0.00     | 0.00     | 0.00     |        # [CUT] [au] Box sides
# | %
# | CUTRadius= 0.000000          # [CUT] [au] Sphere/Cylinder radius
# | CUTCylLen= 0.000000          # [CUT] [au] Cylinder length
# | Chimod= "Hartree"            # [X] IP/Hartree/ALDA/LRC/BSfxc
# | BSEmod= "resonant"           # [BSE] resonant/causal/coupling
# | BSKmod= "SEX"                # [BSE] IP/Hartree/HF/ALDA/SEX/BSfxc
# | BSSmod= "d"                  # [BSS] (h)aydock/(d)iagonalization/(i)nversion/(t)ddft`
# | BSENGexx= 113          RL    # [BSK] Exchange components
# | BSENGBlk= 113          RL    # [BSK] Screened interaction block size
# | % KfnQP_E
# |  3.500000 | 1.000000 | 1.000000 |        # [EXTQP BSK BSS] E parameters  (c/v) eV|adim|adim
# | %
# | % BEnRange
# |   0.00000 | 10.00000 | eV    # [BSS] Energy range
# | %
# | % BDmRange
# |   0.10000 |  0.10000 | eV    # [BSS] Damping range
# | %
# | BEnSteps= 1000               # [BSS] Energy steps
# | % BLongDir
# | 0.1000E-4 | 0.000    | 0.000    |        # [BSS] [cc] Electric Field
# | %
# | % BSEBands
# |  1 | 2 |                     # [BSK] Bands range
# | %
# | WRbsWF                       # [BSS] Write to disk excitonic the FWs
# | % QpntsRXs
# |    1 |  41 |                 # [Xs] Transferred momenta
# | %
# | % BndsRnXs
# |  1 | 2 |                     # [Xs] Polarization function bands
# | %
# | NGsBlkXs= 113          RL    # [Xs] Response block size
# | % LongDrXs
# | 0.1000E-4 | 0.000    | 0.000    |        # [Xs] [cc] Electric Field
# | %
